# Created by:        SpecsLab Prodigy, Version 4.79.1-r98952 
#
# XY-Serializer Export Settings:
#   Comment Prefix:           #
#   Output Meta Data:         yes
#   Energy Axis:              Binding Energy
#   Count Rate:               Counts per Second
#   Separate Scan Data:       no
#   Separate Channel Data:    no
#   External Channel Data:    yes
#   Transmission Function:    no
#   Error Bar:                no
#   Operation Results:        yes
#   Time Zone Format:         UTC
#
# Group:                        Overall Scans
#
# Region:                       overall 8B
# Spectrum ID:                  1
# Acquisition Date:             09/19/24 17:46:34 UTC
# Analysis Method:              XPS
# Analyzer:                     PHOIBOS MCD5 Analyzer
# Analyzer Lens:                LargeArea:1.5kV
# Analyzer Slit:                8:7dia.\B:open
# Scan Mode:                    FixedAnalyzerTransmission
# Curves/Scan:                  1
# Values/Curve:                 1002
# Dwell Time:                   0.5
# Excitation Energy:            1253.64
# Binding Energy:               1000
# Pass Energy:                  20
# Bias Voltage:                 90
# Detector Voltage:             3000
# Eff. Workfunction:            4.543
# Source:                       X-Ray Dummy
# Comment:                      
#
# Cycle: 0
# Number of Scans: 2
#
# Cycle: 0, Curve: 0
# Acquisition Date:             09/19/24 17:46:34 UTC
#
# ColumnLabels:                 energy counts/s
#
1000  4638.4482
999.001  4657.2177
998.002  4608.7539
997.003  4554.0932
996.004  4478.0395
995.005  4445.6409
994.00599  4580.0839
993.00699  4571.4616
992.00799  4521.2028
991.00899  4600.459
990.00999  4462.5984
989.01099  4436.9119
988.01199  4484.8722
987.01299  4412.6363
986.01399  4423.5482
985.01499  4434.4795
984.01598  4374.2047
983.01698  4372.2134
982.01798  4155.3486
981.01898  4149.3951
980.01998  4124.3929
979.02098  4079.4626
978.02198  4064.6007
977.02298  4158.8233
976.02398  4105.9101
975.02498  4189.2166
974.02597  4208.4532
973.02697  4208.1118
972.02797  4145.7751
971.02897  4181.1341
970.02997  4153.1755
969.03097  4096.6868
968.03197  4161.9317
967.03297  4105.6535
966.03397  4161.8991
965.03497  4149.319
964.03596  4210.6328
963.03696  4218.7123
962.03796  4247.1258
961.03896  4338.7668
960.03996  4336.8289
959.04096  4417.6331
958.04196  4414.1191
957.04296  4374.941
956.04396  4462.4238
955.04496  4511.264
954.04595  4399.9451
953.04695  4375.1989
952.04795  4278.9684
951.04895  4151.4545
950.04995  4134.5222
949.05095  4207.7787
948.05195  4108.5042
947.05295  4098.5604
946.05395  4021.3824
945.05495  3926.0376
944.05594  3915.2139
943.05694  3948.8564
942.05794  3865.046
941.05894  3819.9206
940.05994  3875.2518
939.06094  3838.635
938.06194  3864.6194
937.06294  3949.2842
936.06394  3945.9992
935.06494  3943.4155
934.06593  3860.7699
933.06693  3789.763
932.06793  3799.6788
931.06893  3897.3502
930.06993  3918.0919
929.07093  3978.2593
928.07193  3909.0734
927.07293  3861.4823
926.07393  3893.4774
925.07493  3982.4896
924.07592  3992.7471
923.07692  3946.403
922.07792  3827.6922
921.07892  3824.1256
920.07992  3838.9948
919.08092  3843.5549
918.08192  3882.7992
917.08292  3876.4824
916.08392  3807.6872
915.08492  3786.472
914.08591  3824.1688
913.08691  3753.862
912.08791  3872.9258
911.08891  3860.0646
910.08991  3786.0233
909.09091  3799.8567
908.09191  3790.7854
907.09291  3820.4013
906.09391  3879.9428
905.09491  3824.524
904.0959  3876.6528
903.0969  3825.4772
902.0979  3746.7646
901.0989  3825.9797
900.0999  3852.0311
899.1009  3794.3397
898.1019  3778.0768
897.1029  3725.8511
896.1039  3745.3291
895.1049  3713.9531
894.10589  3740.3284
893.10689  3691.8327
892.10789  3631.3275
891.10889  3627.7424
890.10989  3581.8633
889.11089  3417.5983
888.11189  3416.1299
887.11289  3489.3919
886.11389  3458.6169
885.11489  3535.1416
884.11588  3355.8819
883.11688  3500.7361
882.11788  3490.6611
881.11888  3515.1713
880.11988  3450.2227
879.12088  3375.4806
878.12188  3345.2522
877.12288  3423.4589
876.12388  3471.9641
875.12488  3472.2127
874.12587  3511.3306
873.12687  3547.4516
872.12787  3545.8887
871.12887  3617.182
870.12987  3478.8833
869.13087  3403.369
868.13187  3460.2609
867.13287  3449.7171
866.13387  3496.4805
865.13487  3451.0891
864.13586  3399.7398
863.13686  3410.0793
862.13786  3454.082
861.13886  3403.89
860.13986  3383.794
859.14086  3326.4011
858.14186  3422.6376
857.14286  3379.0875
856.14386  3271.2615
855.14486  3264.6733
854.14585  3229.7762
853.14685  3225.2668
852.14785  3250.8583
851.14885  3299.9261
850.14985  3174.3294
849.15085  3117.8985
848.15185  3119.0312
847.15285  3065.5444
846.15385  2908.9285
845.15485  2906.8356
844.15584  2974.488
843.15684  3007.175
842.15784  3013.8856
841.15884  2997.2638
840.15984  2925.4961
839.16084  2997.264
838.16184  2940.5529
837.16284  2966.9098
836.16384  3028.3935
835.16484  2994.9399
834.16583  3066.0358
833.16683  3109.5652
832.16783  3101.0871
831.16883  3043.2635
830.16983  3079.6111
829.17083  3037.4269
828.17183  3096.7282
827.17283  3068.6542
826.17383  3062.0942
825.17483  3019.0829
824.17582  2932.439
823.17682  2844.7501
822.17782  2887.5447
821.17882  2914.2236
820.17982  2843.1138
819.18082  2981.5108
818.18182  3078.4159
817.18282  3115.8858
816.18382  3198.0436
815.18482  3066.5944
814.18581  3062.6976
813.18681  3048.3425
812.18781  3008.7287
811.18881  3016.3274
810.18981  3097.8574
809.19081  3098.8006
808.19181  3106.4769
807.19281  3115.6952
806.19381  3104.6382
805.19481  3069.2121
804.1958  3017.6258
803.1968  3005.3461
802.1978  3046.9953
801.1988  3015.7392
800.1998  2943.7909
799.2008  2996.5988
798.2018  3011.295
797.2028  3010.3618
796.2038  2978.4677
795.2048  2937.6542
794.20579  2988.8138
793.20679  2941.9511
792.20779  2892.0028
791.20879  2898.5805
790.20979  2801.7751
789.21079  2906.2938
788.21179  2904.1319
787.21279  2881.2358
786.21379  2906.0398
785.21479  2916.4923
784.21578  2959.6971
783.21678  2844.9406
782.21778  2852.2198
781.21878  2908.2741
780.21978  2863.5287
779.22078  2889.805
778.22178  2916.9047
777.22278  2893.2868
776.22378  2990.9365
775.22478  2986.4846
774.22577  2946.559
773.22677  3001.9647
772.22777  2941.6404
771.22877  2962.0333
770.22977  3047.3
769.23077  2994.0325
768.23177  2922.0899
767.23277  2881.91
766.23377  2866.0301
765.23477  2792.1931
764.23576  2750.0487
763.23676  2736.6418
762.23776  2607.479
761.23876  2694.6313
760.23976  2611.6421
759.24076  2576.4946
758.24176  2582.4502
757.24276  2602.7357
756.24376  2576.8888
755.24476  2574.9452
754.24575  2660.4144
753.24675  2703.2342
752.24775  2792.028
751.24875  2868.1578
750.24975  2968.5009
749.25075  3075.3538
748.25175  3034.0232
747.25275  3048.7827
746.25375  2993.645
745.25475  2925.4711
744.25574  2852.551
743.25674  2828.5666
742.25774  2776.173
741.25874  2711.1763
740.25974  2632.5971
739.26074  2561.1092
738.26174  2444.327
737.26274  2462.2535
736.26374  2368.9981
735.26474  2304.4014
734.26573  2280.7911
733.26673  2228.7766
732.26773  2209.6765
731.26873  2241.2852
730.26973  2204.0073
729.27073  2105.1365
728.27173  2198.8696
727.27273  2209.7142
726.27373  2136.9344
725.27473  2146.0978
724.27572  2144.4471
723.27672  2095.0831
722.27772  2151.7129
721.27872  2167.1461
720.27972  2176.249
719.28072  2136.2992
718.28172  2130.7858
717.28272  2148.0077
716.28372  2068.1202
715.28472  2207.0085
714.28571  2168.2704
713.28671  2117.4273
712.28771  2120.4978
711.28871  2117.8896
710.28971  2111.3756
709.29071  2129.9085
708.29171  2057.168
707.29271  2082.2615
706.29371  2004.0414
705.29471  1955.8958
704.2957  2001.242
703.2967  2027.797
702.2977  2043.6088
701.2987  2015.249
700.2997  2017.591
699.3007  2050.5436
698.3017  1999.0835
697.3027  1928.2083
696.3037  1988.2941
695.3047  2020.9047
694.30569  2026.9113
693.30669  2019.1066
692.30769  1999.759
691.30869  2073.8132
690.30969  2088.526
689.31069  2146.6226
688.31169  2065.5521
687.31269  2066.6021
686.31369  2027.5805
685.31469  2078.5599
684.31568  2009.601
683.31668  2053.3455
682.31768  2066.1282
681.31868  1983.5754
680.31968  1843.3808
679.32068  1940.4083
678.32168  1966.5375
677.32268  1903.0273
676.32368  2019.5745
675.32468  2028.7345
674.32567  2002.2423
673.32667  2021.9317
672.32767  2022.3493
671.32867  1953.8208
670.32967  1960.979
669.33067  1940.1388
668.33167  2022.4716
667.33267  2045.9042
666.33367  2045.0463
665.33467  2026.7155
664.33566  2029.2378
663.33666  2001.3835
662.33766  1941.4075
661.33866  1932.1111
660.33966  1964.1921
659.34066  1927.3415
658.34166  1895.2641
657.34266  1935.7717
656.34366  1969.5831
655.34466  1973.1054
654.34565  1987.3843
653.34665  2012.6227
652.34765  1917.6957
651.34865  1929.2254
650.34965  1917.1239
649.35065  1948.0329
648.35165  1964.7865
647.35265  1898.5081
646.35365  1975.0765
645.35465  1978.9606
644.35564  1987.3042
643.35664  2021.8995
642.35764  1999.5667
641.35864  2031.556
640.35964  2014.7255
639.36064  1965.8975
638.36164  1943.0921
637.36264  1928.3445
636.36364  1904.3238
635.36464  1965.1933
634.36563  1975.5092
633.36663  1925.0012
632.36763  1915.2834
631.36863  1911.1415
630.36963  1936.9209
629.37063  1994.0985
628.37163  1943.0753
627.37263  1945.3696
626.37363  1938.0793
625.37463  1967.7392
624.37562  1944.2076
623.37662  1868.2817
622.37762  1904.699
621.37862  1916.9321
620.37962  1896.5087
619.38062  1908.9174
618.38162  1901.7969
617.38262  1866.929
616.38362  1905.2404
615.38462  1887.8361
614.38561  1891.4534
613.38661  1818.9275
612.38761  1846.8777
611.38861  1884.1487
610.38961  1887.0804
609.39061  1831.8476
608.39161  1843.6678
607.39261  1876.5016
606.39361  1904.9767
605.39461  1863.6548
604.3956  1829.2253
603.3966  1831.4024
602.3976  1868.732
601.3986  1837.1474
600.3996  1818.8801
599.4006  1844.992
598.4016  1870.0949
597.4026  1873.3798
596.4036  1887.1147
595.4046  1837.8897
594.40559  1841.931
593.40659  1817.9979
592.40759  1841.5165
591.40859  1825.5782
590.40959  1861.9955
589.41059  1824.0456
588.41159  1815.7692
587.41259  1849.0759
586.41359  1850.4401
585.41459  1848.9669
584.41558  1759.536
583.41658  1783.8784
582.41758  1823.4743
581.41858  1828.8641
580.41958  1845.276
579.42058  1845.2785
578.42158  1827.9105
577.42258  1787.6312
576.42358  1821.406
575.42458  1807.1822
574.42557  1791.4923
573.42657  1766.5178
572.42757  1789.6464
571.42857  1719.098
570.42957  1750.4714
569.43057  1779.2952
568.43157  1759.1282
567.43257  1736.7315
566.43357  1789.1588
565.43457  1781.7846
564.43556  1772.5019
563.43656  1791.5079
562.43756  1775.9348
561.43856  1785.165
560.43956  1810.3489
559.44056  1793.3568
558.44156  1871.5042
557.44256  1767.6088
556.44356  1793.4483
555.44456  1775.1349
554.44555  1751.846
553.44655  1696.9587
552.44755  1676.4835
551.44855  1671.6156
550.44955  1715.9628
549.45055  1632.2139
548.45155  1596.0207
547.45255  1667.435
546.45355  1633.2948
545.45455  1621.3031
544.45554  1542.231
543.45654  1566.1023
542.45754  1508.7499
541.45854  1556.7449
540.45954  1478.0514
539.46054  1480.2061
538.46154  1463.6762
537.46254  1588.6145
536.46354  1874.1451
535.46454  2393.9047
534.46553  2848.9012
533.46653  2728.7731
532.46753  2176.7495
531.46853  1754.514
530.46953  1550.0028
529.47053  1534.5923
528.47153  1401.5877
527.47253  1422.8917
526.47353  1529.985
525.47453  1466.6107
524.47552  1537.9106
523.47652  1474.0202
522.47752  1374.8791
521.47852  1386.3444
520.47952  1277.8825
519.48052  1276.4345
518.48152  1181.8211
517.48252  1214.2114
516.48352  1236.3149
515.48452  1220.065
514.48551  1170.8543
513.48651  1211.7382
512.48751  1274.8739
511.48851  1315.9341
510.48951  1328.7558
509.49051  1384.5579
508.49151  1314.8832
507.49251  1194.0027
506.49351  1187.3573
505.49451  1230.8734
504.4955  1218.9381
503.4965  1227.8271
502.4975  1202.9237
501.4985  1275.3696
500.4995  1310.0007
499.5005  1277.1781
498.5015  1258.1228
497.5025  1232.8646
496.5035  1197.1857
495.5045  1142.1489
494.50549  1140.667
493.50649  1118.5789
492.50749  1152.5312
491.50849  1095.113
490.50949  1103.4451
489.51049  1096.0493
488.51149  1075.793
487.51249  1084.8309
486.51349  1088.9178
485.51449  1094.7496
484.51548  1047.1993
483.51648  1027.8586
482.51748  1074.4826
481.51848  1038.2866
480.51948  989.13969
479.52048  1004.4054
478.52148  1044.0289
477.52248  1052.299
476.52348  1075.0981
475.52448  1008.0172
474.52547  1001.0167
473.52647  984.77974
472.52747  989.48547
471.52847  956.2233
470.52947  958.05047
469.53047  968.64358
468.53147  964.02199
467.53247  919.25805
466.53347  945.28347
465.53447  940.64053
464.53546  916.38102
463.53646  888.90712
462.53746  914.27753
461.53846  899.64524
460.53946  900.53677
459.54046  887.04204
458.54146  897.53298
457.54246  887.80164
456.54346  881.3766
455.54446  901.51654
454.54545  885.60289
453.54645  864.01531
452.54745  829.82182
451.54845  822.59925
450.54945  831.49284
449.55045  866.68117
448.55145  822.65358
447.55245  855.81553
446.55345  829.89421
445.55445  824.98552
444.55544  878.33364
443.55644  853.35991
442.55744  811.63246
441.55844  800.68033
440.55944  881.21882
439.56044  877.24732
438.56144  849.24608
437.56244  874.43039
436.56344  846.04639
435.56444  852.04448
434.56543  878.44265
433.56643  862.39929
432.56743  845.63178
431.56843  803.16195
430.56943  842.86133
429.57043  799.29148
428.57143  853.30923
427.57243  838.08763
426.57343  858.9495
425.57443  830.52505
424.57542  843.25794
423.57642  856.53476
422.57742  833.42769
421.57842  776.93317
420.57942  797.98697
419.58042  809.3998
418.58142  836.20064
417.58242  797.17406
416.58342  837.5411
415.58442  820.24721
414.58541  842.97842
413.58641  830.95593
412.58741  850.7234
411.58841  891.2748
410.58941  881.97395
409.59041  857.53722
408.59141  868.36558
407.59241  895.3808
406.59341  919.04546
405.59441  886.74697
404.5954  832.07641
403.5964  839.58234
402.5974  811.0858
401.5984  803.20663
400.5994  765.05534
399.6004  773.44222
398.6014  759.83228
397.6024  771.02795
396.6034  740.99841
395.6044  725.80221
394.60539  767.88874
393.60639  761.86714
392.60739  751.76739
391.60839  776.96869
390.60939  765.59615
389.61039  786.57442
388.61139  743.97476
387.61239  756.30021
386.61339  800.78457
385.61439  767.73941
384.61538  727.84639
383.61638  741.45688
382.61738  725.48571
381.61838  742.7294
380.61938  739.81272
379.62038  768.40999
378.62138  749.10645
377.62238  734.65186
376.62338  753.8793
375.62438  784.80268
374.62537  794.38696
373.62637  766.86502
372.62737  767.10949
371.62837  720.94566
370.62937  695.01798
369.63037  715.24361
368.63137  735.33506
367.63237  785.14133
366.63337  769.83741
365.63437  761.23457
364.63536  733.31802
363.63636  740.68921
362.63736  732.34641
361.63836  761.75423
360.63936  754.35883
359.64036  780.99268
358.64136  786.58849
357.64236  791.06209
356.64336  798.75351
355.64436  781.19991
354.64535  824.47073
353.64635  858.93884
352.64735  813.40632
351.64835  808.37756
350.64935  775.95719
349.65035  772.70536
348.65135  747.0889
347.65235  728.8788
346.65335  714.29971
345.65435  798.09111
344.65534  769.36146
343.65634  686.28795
342.65734  728.18305
341.65834  742.17042
340.65934  791.76143
339.66034  793.96311
338.66134  815.89367
337.66234  817.72928
336.66334  847.37308
335.66434  820.9084
334.66533  843.02716
333.66633  800.10231
332.66733  798.03999
331.66833  733.42937
330.66933  703.59391
329.67033  710.84003
328.67133  754.18488
327.67233  714.28037
326.67333  734.31257
325.67433  684.55942
324.67532  676.6305
323.67632  657.00941
322.67732  663.2523
321.67832  668.87091
320.67932  702.55975
319.68032  713.79233
318.68132  762.76115
317.68232  806.73501
316.68332  835.53257
315.68432  822.83153
314.68531  857.69178
313.68631  922.13637
312.68731  883.44241
311.68831  818.25002
310.68931  864.21752
309.69031  917.38555
308.69131  787.56339
307.69231  639.84735
306.69331  563.45371
305.69431  563.30885
304.6953  586.67981
303.6963  587.73297
302.6973  558.56745
301.6983  579.86319
300.6993  570.40711
299.7003  553.5846
298.7013  507.0009
297.7023  531.27008
296.7033  529.43327
295.7043  499.10715
294.70529  487.42809
293.70629  498.35533
292.70729  510.29657
291.70829  520.03463
290.70929  477.94378
289.71029  466.11736
288.71129  484.52635
287.71229  519.7283
286.71329  582.21294
285.71429  651.08424
284.71528  696.56613
283.71628  556.68151
282.71728  485.86507
281.71828  466.14942
280.71928  437.68376
279.72028  473.72677
278.72128  478.30258
277.72228  490.40225
276.72328  493.02769
275.72428  481.63613
274.72527  469.072
273.72627  473.59886
272.72727  478.31814
271.72827  476.65346
270.72927  455.47138
269.73027  463.25141
268.73127  458.07079
267.73227  461.24684
266.73327  469.34263
265.73427  475.37433
264.73526  463.17895
263.73626  455.93421
262.73726  492.74007
261.73826  450.99414
260.73926  449.16659
259.74026  462.11902
258.74126  468.8652
257.74226  416.9104
256.74326  465.7995
255.74426  462.15481
254.74525  452.11942
253.74625  458.3992
252.74725  476.6365
251.74825  478.20762
250.74925  454.80095
249.75025  479.20595
248.75125  477.03886
247.75225  488.51843
246.75325  448.55764
245.75425  446.48475
244.75524  424.77353
243.75624  457.6575
242.75724  459.78514
241.75824  447.57379
240.75924  418.54089
239.76024  409.42818
238.76124  440.66555
237.76224  467.08736
236.76324  427.21477
235.76424  445.75937
234.76523  455.65162
233.76623  461.82206
232.76723  447.7306
231.76823  437.08273
230.76923  456.5625
229.77023  477.24699
228.77123  468.92393
227.77223  463.79291
226.77323  443.47751
225.77423  463.48057
224.77522  469.68642
223.77622  458.35529
222.77722  464.59886
221.77822  438.31809
220.77922  445.52746
219.78022  426.00938
218.78122  442.16194
217.78222  466.04149
216.78322  454.14637
215.78422  465.23777
214.78521  444.16649
213.78621  457.85949
212.78721  455.41542
211.78821  406.50475
210.78921  429.13719
209.79021  470.65043
208.79121  458.24975
207.79221  460.42486
206.79321  447.44058
205.79421  453.6593
204.7952  450.67372
203.7962  430.30125
202.7972  428.04315
201.7982  451.93024
200.7992  446.32297
199.8002  490.16609
198.8012  469.0085
197.8022  454.53764
196.8032  423.31388
195.8042  421.75736
194.80519  456.22074
193.80619  480.08346
192.80719  449.12825
191.80819  465.27812
190.80919  459.84731
189.81019  401.14044
188.81119  421.15547
187.81219  439.65913
186.81319  423.89456
185.81419  426.16812
184.81518  460.2274
183.81618  458.52588
182.81718  443.28448
181.81818  443.46019
180.81918  429.40706
179.82018  405.6511
178.82118  425.20371
177.82218  434.56957
176.82318  448.56286
175.82418  459.74333
174.82517  459.87492
173.82617  461.74314
172.82717  454.15541
171.82817  443.03913
170.82917  452.64084
169.83017  445.73501
168.83117  445.61914
167.83217  438.67957
166.83317  461.7398
165.83417  427.46268
164.83516  442.72052
163.83616  465.57812
162.83716  421.4104
161.83816  462.09079
160.83916  454.29567
159.84016  451.75071
158.84116  443.4424
157.84216  439.51674
156.84316  455.62379
155.84416  437.56212
154.84515  458.85472
153.84615  416.49061
152.84715  443.36397
151.84815  418.76037
150.84915  439.62324
149.85015  444.06754
148.85115  459.50579
147.85215  458.541
146.85315  469.25792
145.85415  452.10553
144.85514  438.95877
143.85614  452.41206
142.85714  464.67445
141.85814  439.76727
140.85914  439.06337
139.86014  428.21066
138.86114  445.99957
137.86214  437.87867
136.86314  457.87008
135.86414  436.43598
134.86513  430.4435
133.86613  451.05234
132.86713  408.76625
131.86813  433.11438
130.86913  411.6384
129.87013  420.07878
128.87113  413.38393
127.87213  410.51136
126.87313  394.94317
125.87413  440.88114
124.87512  470.99878
123.87612  478.05521
122.87712  573.36358
121.87812  626.02723
120.87912  558.90948
119.88012  499.29885
118.88112  461.46501
117.88212  438.84479
116.88312  471.7595
115.88412  484.15994
114.88511  469.36708
113.88611  476.89438
112.88711  483.90154
111.88811  450.96203
110.88911  449.86619
109.89011  442.40675
108.89111  449.56467
107.89211  433.67653
106.89311  463.3085
105.89411  428.7109
104.8951  460.67225
103.8961  451.09854
102.8971  444.0068
101.8981  422.41081
100.8991  446.72181
99.9001  450.57033
98.901099  446.63161
97.902098  437.26148
96.903097  402.84331
95.904096  413.72595
94.905095  424.62032
93.906094  420.0332
92.907093  401.13471
91.908092  417.41715
90.909091  469.93206
89.91009  501.33092
88.911089  511.44242
87.912088  639.48325
86.913087  620.11996
85.914086  538.78468
84.915085  553.4158
83.916084  655.5619
82.917083  526.84897
81.918082  383.50497
80.919081  384.55541
79.92008  400.48017
78.921079  449.91191
77.922078  534.57285
76.923077  573.85149
75.924076  452.00655
74.925075  397.19839
73.926074  338.56355
72.927073  348.32969
71.928072  330.52842
70.929071  349.65802
69.93007  349.72287
68.931069  361.0802
67.932068  348.13117
66.933067  348.37515
65.934066  347.23232
64.935065  303.49283
63.936064  303.1873
62.937063  288.88858
61.938062  327.37895
60.939061  300.94283
59.94006  294.98235
58.941059  300.62408
57.942058  295.7093
56.943057  307.44261
55.944056  312.59786
54.945055  304.15862
53.946054  287.21016
52.947053  304.63807
51.948052  295.65874
50.949051  319.58051
49.95005  315.66144
48.951049  327.30146
47.952048  325.23705
46.953047  286.66408
45.954046  287.77498
44.955045  286.02107
43.956044  272.65248
42.957043  282.58946
41.958042  285.39556
40.959041  269.32691
39.96004  266.57155
38.961039  274.26949
37.962038  266.05682
36.963037  234.86966
35.964036  260.28452
34.965035  280.95098
33.966034  260.85458
32.967033  249.86652
31.968032  278.56081
30.969031  266.74209
29.97003  270.11149
28.971029  256.94625
27.972028  284.64716
26.973027  294.63869
25.974026  291.11711
24.975025  278.4638
23.976024  278.63192
22.977023  264.39468
21.978022  250.95505
20.979021  249.66085
19.98002  257.48848
18.981019  265.12743
17.982018  251.72443
16.983017  231.44852
15.984016  258.20638
14.985015  248.18514
13.986014  254.3168
12.987013  262.32813
11.988012  267.89362
10.989011  262.91438
9.99001  268.57654
8.991009  251.88132
7.992008  268.59497
6.993007  303.1377
5.994006  325.19558
4.995005  284.93522
3.996004  303.26711
2.997003  307.89347
1.998002  248.37918
0.999001  245.39866
0  243.72377

# Region:                       overall 8B with electron flood gun
# Spectrum ID:                  2
# Acquisition Date:             09/19/24 17:56:03 UTC
# Analysis Method:              XPS
# Analyzer:                     PHOIBOS MCD5 Analyzer
# Analyzer Lens:                LargeArea:1.5kV
# Analyzer Slit:                8:7dia.\B:open
# Scan Mode:                    FixedAnalyzerTransmission
# Curves/Scan:                  1
# Values/Curve:                 1002
# Dwell Time:                   0.5
# Excitation Energy:            1253.64
# Binding Energy:               1000
# Pass Energy:                  20
# Bias Voltage:                 90
# Detector Voltage:             3000
# Eff. Workfunction:            4.543
# Source:                       X-Ray Dummy
# Comment:                      flood gun operated at 0.04 mA 5 eV
#
# Cycle: 0
# Number of Scans: 1
#
# Cycle: 0, Curve: 0
# Acquisition Date:             09/19/24 17:56:03 UTC
#
# ColumnLabels:                 energy counts/s
#
1000  4707.5181
999.001  4683.9899
998.002  4535.8076
997.003  4585.8786
996.004  4661.4861
995.005  4481.4181
994.00599  4503.7683
993.00699  4499.0205
992.00799  4623.0748
991.00899  4504.3092
990.00999  4561.5213
989.01099  4624.3285
988.01199  4446.3249
987.01299  4389.6102
986.01399  4520.5209
985.01499  4433.4349
984.01598  4199.3391
983.01698  4383.9241
982.01798  4261.02
981.01898  4258.6233
980.01998  4267.6747
979.02098  4351.7691
978.02198  4326.7662
977.02298  4141.0138
976.02398  4226.4257
975.02498  4132.707
974.02597  4054.7638
973.02697  4163.2389
972.02797  4279.4266
971.02897  4224.8174
970.02997  4246.0575
969.03097  4122.2057
968.03197  4160.9481
967.03297  4124.4772
966.03397  4157.0543
965.03497  4076.1997
964.03596  4050.241
963.03696  4090.3564
962.03796  4088.6959
961.03896  4213.6244
960.03996  4198.2525
959.04096  4170.4606
958.04196  4240.7694
957.04296  4272.9438
956.04396  4287.1566
955.04496  4397.394
954.04595  4603.2812
953.04695  4428.7779
952.04795  4434.8813
951.04895  4474.5413
950.04995  4449.2252
949.05095  4351.0971
948.05195  4269.5502
947.05295  4196.741
946.05395  4155.4073
945.05495  4209.7094
944.05594  4199.1275
943.05694  4136.3243
942.05794  4049.238
941.05894  4138.4653
940.05994  4091.7526
939.06094  4032.1889
938.06194  4055.3333
937.06294  4015.2196
936.06394  3935.5024
935.06494  3946.1924
934.06593  4014.4767
933.06693  4011.9468
932.06793  3981.1839
931.06893  3977.3179
930.06993  4098.0471
929.07093  4041.7187
928.07193  3923.0455
927.07293  3953.4307
926.07393  4073.8914
925.07493  4032.8064
924.07592  4061.7636
923.07692  3942.875
922.07792  3852.7171
921.07892  3977.2734
920.07992  3868.4908
919.08092  3932.1215
918.08192  3910.859
917.08292  3984.968
916.08392  4004.2649
915.08492  3998.6034
914.08591  3846.2184
913.08691  3877.5648
912.08791  3936.7628
911.08891  3957.982
910.08991  3982.8486
909.09091  3957.8734
908.09191  3872.5617
907.09291  3807.4269
906.09391  3783.2183
905.09491  3734.6022
904.0959  3798.3912
903.0969  3740.145
902.0979  3871.9345
901.0989  3898.5235
900.0999  3883.3345
899.1009  3776.9833
898.1019  3797.1618
897.1029  3765.6585
896.1039  3729.2624
895.1049  3830.5491
894.10589  3801.4539
893.10689  3761.7827
892.10789  3532.7673
891.10889  3586.7902
890.10989  3555.3639
889.11089  3497.077
888.11189  3595.3928
887.11289  3730.5202
886.11389  3749.1815
885.11489  3642.1742
884.11588  3597.4145
883.11688  3625.4884
882.11788  3742.3636
881.11888  3652.643
880.11988  3674.812
879.12088  3657.2175
878.12188  3544.6592
877.12288  3587.5346
876.12388  3560.5513
875.12488  3435.2309
874.12587  3693.0191
873.12687  3584.1692
872.12787  3690.242
871.12887  3608.3497
870.12987  3517.8843
869.13087  3559.5793
868.13187  3494.2927
867.13287  3606.2819
866.13387  3587.5297
865.13487  3402.4891
864.13586  3477.885
863.13686  3379.5384
862.13786  3502.7063
861.13886  3510.9345
860.13986  3385.1918
859.14086  3276.9769
858.14186  3357.9771
857.14286  3366.2514
856.14386  3391.8883
855.14486  3371.3869
854.14585  3523.1543
853.14685  3556.1801
852.14785  3553.971
851.14885  3416.9218
850.14985  3267.8767
849.15085  3126.4682
848.15185  3274.4193
847.15285  3360.3849
846.15385  3202.5172
845.15485  3220.8265
844.15584  3271.6478
843.15684  3218.2884
842.15784  3237.229
841.15884  3233.8165
840.15984  3155.4391
839.16084  3108.7837
838.16184  3126.8221
837.16284  3173.1892
836.16384  3122.693
835.16484  3233.9431
834.16583  3171.791
833.16683  3197.2638
832.16783  3168.6052
831.16883  2973.386
830.16983  2987.3947
829.17083  2981.537
828.17183  2993.9898
827.17283  3124.1701
826.17383  3107.5918
825.17483  3105.3929
824.17582  2940.3377
823.17682  3001.6252
822.17782  3042.7314
821.17882  3004.6647
820.17982  2975.7502
819.18082  3071.3478
818.18182  2917.9988
817.18282  3020.5798
816.18382  3078.3673
815.18482  3117.7582
814.18581  3152.4791
813.18681  3068.3242
812.18781  3042.7996
811.18881  3176.346
810.18981  3336.7545
809.19081  3140.1569
808.19181  3219.9987
807.19281  3300.9446
806.19381  3170.0826
805.19481  3074.2936
804.1958  3117.1116
803.1968  3197.423
802.1978  3259.1825
801.1988  3197.4828
800.1998  3176.7389
799.2008  3126.4596
798.2018  3158.9476
797.2028  3223.8752
796.2038  3099.8608
795.2048  3076.9883
794.20579  3095.2168
793.20679  2982.3481
792.20779  3050.7393
791.20879  2957.6358
790.20979  2902.8167
789.21079  3082.1159
788.21179  3085.6568
787.21279  3114.9894
786.21379  3125.8334
785.21479  3122.6907
784.21578  3042.6725
783.21678  3058.622
782.21778  3129.6539
781.21878  3208.1059
780.21978  3128.399
779.22078  3168.6564
778.22178  2991.2924
777.22278  3191.2457
776.22378  3044.2386
775.22478  3107.5249
774.22577  3027.4536
773.22677  2967.8816
772.22777  3073.8706
771.22877  3021.0562
770.22977  3002.9163
769.23077  3096.0825
768.23177  3213.104
767.23277  3167.0974
766.23377  3208.6148
765.23477  3006.9552
764.23576  3050.7852
763.23676  3128.3195
762.23776  3057.8387
761.23876  2998.6054
760.23976  3075.7908
759.24076  2975.7274
758.24176  2932.9471
757.24276  2910.5726
756.24376  2890.476
755.24476  2786.3769
754.24575  2869.2661
753.24675  2807.974
752.24775  2861.0527
751.24875  2977.205
750.24975  2934.7364
749.25075  2890.8228
748.25175  3151.9416
747.25275  3353.9496
746.25375  3341.0706
745.25475  3372.3363
744.25574  3313.8255
743.25674  3168.9699
742.25774  3078.2504
741.25874  3064.2982
740.25974  3011.3227
739.26074  2785.4478
738.26174  2730.5006
737.26274  2658.3369
736.26374  2593.1084
735.26474  2654.0949
734.26573  2434.8126
733.26673  2380.4433
732.26773  2343.9242
731.26873  2448.0533
730.26973  2303.1678
729.27073  2215.7517
728.27173  2235.4429
727.27273  2334.6335
726.27373  2311.1802
725.27473  2247.3291
724.27572  2202.7211
723.27672  2222.4306
722.27772  2191.3382
721.27872  2198.232
720.27972  2175.6084
719.28072  2215.1395
718.28172  2231.7745
717.28272  2167.8306
716.28372  2121.9933
715.28472  2180.7931
714.28571  2123.1305
713.28671  2080.244
712.28771  2116.0934
711.28871  2085.6881
710.28971  2116.9401
709.29071  2110.4592
708.29171  2174.3676
707.29271  2188.1883
706.29371  2128.3346
705.29471  2065.7575
704.2957  2037.5097
703.2967  2050.7874
702.2977  2091.9229
701.2987  2036.6997
700.2997  2074.2709
699.3007  2161.7898
698.3017  2142.7363
697.3027  2182.7914
696.3037  2108.6346
695.3047  2149.7094
694.30569  2111.0258
693.30669  2161.7811
692.30769  2147.3759
691.30869  2125.2717
690.30969  2160.5203
689.31069  2007.3373
688.31169  1984.5504
687.31269  2037.106
686.31369  2090.3997
685.31469  1959.1954
684.31568  1962.2485
683.31668  1920.2963
682.31768  1878.5192
681.31868  1929.856
680.31968  2030.0185
679.32068  1991.2134
678.32168  1960.6303
677.32268  1946.8863
676.32368  1934.2398
675.32468  1953.4621
674.32567  1985.6305
673.32667  1979.9761
672.32767  1938.5455
671.32867  1931.8011
670.32967  2048.9072
669.33067  1989.6368
668.33167  1885.0864
667.33267  1946.608
666.33367  1894.2313
665.33467  1898.563
664.33566  1985.15
663.33666  1901.9607
662.33766  1947.8736
661.33866  1839.0503
660.33966  1948.6355
659.34066  2047.9428
658.34166  2045.2452
657.34266  1990.7961
656.34366  1981.4767
655.34466  1910.0851
654.34565  1829.3133
653.34665  1791.4187
652.34765  1980.2245
651.34865  1972.7419
650.34965  1993.5038
649.35065  2023.0386
648.35165  2022.7827
647.35265  2050.9104
646.35365  1984.7997
645.35465  2003.555
644.35564  1959.045
643.35664  1982.2002
642.35764  2033.2266
641.35864  1994.3245
640.35964  1994.5919
639.36064  1981.7588
638.36164  1966.1955
637.36264  1919.8796
636.36364  1938.137
635.36464  1976.9709
634.36563  1902.7192
633.36663  1975.5417
632.36763  1873.2099
631.36863  1835.5896
630.36963  1833.1631
629.37063  1849.4735
628.37163  1820.3722
627.37263  1826.3981
626.37363  1939.6054
625.37463  1850.3164
624.37562  1926.2836
623.37662  1880.6708
622.37762  1919.9662
621.37862  1924.1139
620.37962  1813.2687
619.38062  1782.2283
618.38162  1913.7261
617.38262  1893.9018
616.38362  1852.2674
615.38462  1843.8564
614.38561  1860.4827
613.38661  1852.4402
612.38761  1855.2104
611.38861  1757.8364
610.38961  1861.3123
609.39061  1854.0724
608.39161  1859.3515
607.39261  1828.1791
606.39361  1847.3354
605.39461  1806.2935
604.3956  1833.9908
603.3966  1896.801
602.3976  1886.0744
601.3986  1916.3233
600.3996  1800.4471
599.4006  1816.0883
598.4016  1830.3029
597.4026  1911.6327
596.4036  1755.2015
595.4046  1776.7286
594.40559  1816.39
593.40659  1761.294
592.40759  1802.707
591.40859  1903.9872
590.40959  1910.9564
589.41059  1829.2448
588.41159  1832.452
587.41259  1895.1514
586.41359  1824.3875
585.41459  1920.8852
584.41558  1886.9583
583.41658  1841.8656
582.41758  1770.3784
581.41858  1819.3193
580.41958  1808.5739
579.42058  1848.0135
578.42158  1842.3834
577.42258  1847.9929
576.42358  1813.7019
575.42458  1848.1671
574.42557  1915.6842
573.42657  1851.1026
572.42757  1840.6412
571.42857  1776.7195
570.42957  1800.1881
569.43057  1838.4215
568.43157  1712.5509
567.43257  1806.3759
566.43357  1840.8883
565.43457  1883.8134
564.43556  1891.522
563.43656  1754.0405
562.43756  1706.1318
561.43856  1744.759
560.43956  1758.2739
559.44056  1765.2075
558.44156  1833.6167
557.44256  1864.8293
556.44356  1942.3152
555.44456  1969.1564
554.44555  1854.9459
553.44655  1803.5803
552.44755  1665.8691
551.44855  1792.9389
550.44955  1640.627
549.45055  1731.7516
548.45155  1656.9993
547.45255  1648.5155
546.45355  1735.0235
545.45455  1737.7614
544.45554  1672.6082
543.45654  1513.7468
542.45754  1542.8168
541.45854  1601.719
540.45954  1470.3332
539.46054  1486.4807
538.46154  1520.1695
537.46254  1476.2468
536.46354  1455.9114
535.46454  1474.2434
534.46553  1565.2011
533.46653  1907.7506
532.46753  2447.8632
531.46853  2751.6838
530.46953  2577.0111
529.47053  2212.0561
528.47153  1937.2346
527.47253  1801.1144
526.47353  1557.3196
525.47453  1559.2738
524.47552  1543.1411
523.47652  1564.0872
522.47752  1618.8014
521.47852  1619.9871
520.47952  1589.5882
519.48052  1402.3374
518.48152  1452.0864
517.48252  1365.914
516.48352  1271.2777
515.48452  1309.2283
514.48551  1268.0306
513.48651  1247.1317
512.48751  1259.0983
511.48851  1255.7419
510.48951  1276.8067
509.49051  1234.8617
508.49151  1337.3418
507.49251  1304.2881
506.49351  1364.6333
505.49451  1303.0128
504.4955  1296.7222
503.4965  1349.846
502.4975  1220.6618
501.4985  1307.3015
500.4995  1284.7845
499.5005  1252.1793
498.5015  1261.1408
497.5025  1239.1996
496.5035  1253.0918
495.5045  1261.1171
494.50549  1242.958
493.50649  1218.1299
492.50749  1183.0755
491.50849  1125.7337
490.50949  1138.2102
489.51049  1199.6523
488.51149  1135.1343
487.51249  1094.9748
486.51349  1089.64
485.51449  1181.506
484.51548  1101.6004
483.51648  1054.0865
482.51748  1078.7793
481.51848  1129.0248
480.51948  1125.7733
479.52048  1152.2803
478.52148  1133.7488
477.52248  1161.1368
476.52348  1095.3916
475.52448  1073.6427
474.52547  1100.5386
473.52647  1064.3
472.52747  1044.9751
471.52847  1055.1564
470.52947  1074.6685
469.53047  1039.5833
468.53147  1055.21
467.53247  985.98555
466.53347  1088.7636
465.53447  964.77753
464.53546  939.18309
463.53646  988.10024
462.53746  937.04728
461.53846  971.32308
460.53946  967.38016
459.54046  1025.3474
458.54146  1017.9645
457.54246  1071.0129
456.54346  1002.9762
455.54446  1000.7588
454.54545  961.22934
453.54645  927.60736
452.54745  943.25945
451.54845  964.08786
450.54945  969.99783
449.55045  931.62066
448.55145  952.58809
447.55245  935.49342
446.55345  917.08338
445.55445  942.52872
444.55544  922.68813
443.55644  858.94419
442.55744  849.19598
441.55844  908.89193
440.55944  881.26229
439.56044  933.6515
438.56144  928.6446
437.56244  942.00642
436.56344  909.85982
435.56444  907.94472
434.56543  883.96065
433.56643  930.36048
432.56743  956.89443
431.56843  974.13679
430.56943  967.64266
429.57043  929.5627
428.57143  874.56316
427.57243  882.63426
426.57343  869.79112
425.57443  931.53699
424.57542  921.59476
423.57642  893.13104
422.57742  876.48294
421.57842  955.81693
420.57942  870.64916
419.58042  920.5267
418.58142  919.68651
417.58242  890.72185
416.58342  895.22836
415.58442  885.9929
414.58541  817.1715
413.58641  850.43277
412.58741  905.89965
411.58841  920.27499
410.58941  948.9756
409.59041  956.75583
408.59141  926.95266
407.59241  954.07947
406.59341  985.3519
405.59441  861.57656
404.5954  818.7167
403.5964  844.42226
402.5974  823.84844
401.5984  789.14838
400.5994  776.95412
399.6004  846.47936
398.6014  787.0987
397.6024  809.93547
396.6034  828.59377
395.6044  762.11204
394.60539  779.18358
393.60639  745.74195
392.60739  843.77346
391.60839  770.75143
390.60939  843.1954
389.61039  827.66119
388.61139  791.87299
387.61239  820.50755
386.61339  770.00217
385.61439  785.87181
384.61538  765.77426
383.61638  736.32128
382.61738  726.05797
381.61838  760.16382
380.61938  781.66475
379.62038  750.95463
378.62138  785.66122
377.62238  774.98269
376.62338  789.05606
375.62438  759.55275
374.62537  778.1548
373.62637  823.06293
372.62737  805.81129
371.62837  768.22226
370.62937  795.66645
369.63037  799.4077
368.63137  870.16568
367.63237  869.19311
366.63337  797.13184
365.63437  744.90221
364.63536  788.23659
363.63636  770.35715
362.63736  749.70392
361.63836  786.6613
360.63936  738.89574
359.64036  748.80779
358.64136  785.01528
357.64236  802.73617
356.64336  830.29563
355.64436  854.21039
354.64535  795.85224
353.64635  774.05986
352.64735  734.55499
351.64835  825.6911
350.64935  800.73502
349.65035  795.44018
348.65135  754.69808
347.65235  712.84727
346.65335  759.51142
345.65435  816.65711
344.65534  793.2972
343.65634  783.98023
342.65734  733.92567
341.65834  777.2694
340.65934  863.22246
339.66034  809.83718
338.66134  780.85618
337.66234  788.71048
336.66334  867.38042
335.66434  910.27396
334.66533  936.80179
333.66633  886.52528
332.66733  869.04798
331.66833  785.54665
330.66933  814.81857
329.67033  770.10321
328.67133  729.83932
327.67233  756.49757
326.67333  715.73962
325.67433  731.08374
324.67532  778.83295
323.67632  689.22457
322.67732  706.09212
321.67832  738.17352
320.67932  757.54465
319.68032  753.83802
318.68132  751.31107
317.68232  718.04854
316.68332  792.18578
315.68432  752.46593
314.68531  778.0373
313.68631  863.1816
312.68731  878.55151
311.68831  877.44401
310.68931  871.81267
309.69031  880.23359
308.69131  924.59662
307.69231  979.10432
306.69331  899.31549
305.69431  819.24499
304.6953  700.6469
303.6963  668.7699
302.6973  648.74805
301.6983  611.31443
300.6993  543.78536
299.7003  613.12455
298.7013  603.42856
297.7023  612.95231
296.7033  574.0579
295.7043  554.64351
294.70529  579.92362
293.70629  517.65464
292.70729  515.16062
291.70829  485.17378
290.70929  490.58971
289.71029  512.83325
288.71129  525.78183
287.71229  550.54025
286.71329  565.95376
285.71429  657.66576
284.71528  727.25034
283.71628  616.53046
282.71728  508.69922
281.71828  465.85273
280.71928  519.50428
279.72028  510.58505
278.72128  514.02871
277.72228  532.47626
276.72328  558.1669
275.72428  520.46738
274.72527  483.64711
273.72627  503.17866
272.72727  525.34202
271.72827  481.53056
270.72927  443.73903
269.73027  439.22675
268.73127  516.92758
267.73227  510.89892
266.73327  502.59826
265.73427  480.75626
264.73526  484.58712
263.73626  517.30027
262.73726  504.61988
261.73826  493.26351
260.73926  431.89691
259.74026  457.58828
258.74126  480.43145
257.74226  488.76661
256.74326  495.4591
255.74426  495.47223
254.74525  450.77411
253.74625  418.45136
252.74725  453.59263
251.74825  444.62775
250.74925  473.38029
249.75025  427.39278
248.75125  418.27458
247.75225  479.37964
246.75325  480.20524
245.75425  427.41815
244.75524  457.73661
243.75624  480.83431
242.75724  451.96677
241.75824  436.21658
240.75924  460.46657
239.76024  502.3202
238.76124  475.31992
237.76224  456.31888
236.76324  431.41389
235.76424  472.23271
234.76523  470.99668
233.76623  476.73429
232.76723  460.44161
231.76823  447.34018
230.76923  463.49819
229.77023  465.40735
228.77123  471.47446
227.77223  444.69687
226.77323  443.47285
225.77423  468.22927
224.77522  499.0572
223.77622  489.31992
222.77722  488.72075
221.77822  509.69226
220.77922  523.84858
219.78022  501.30701
218.78122  460.35026
217.78222  510.97967
216.78322  509.99644
215.78422  435.22549
214.78521  444.47368
213.78621  409.64978
212.78721  474.2739
211.78821  485.76557
210.78921  450.18757
209.79021  471.65497
208.79121  465.03505
207.79221  448.30666
206.79321  433.00201
205.79421  457.56874
204.7952  483.99103
203.7962  450.7001
202.7972  475.09281
201.7982  475.87315
200.7992  487.27931
199.8002  483.81473
198.8012  460.36082
197.8022  480.16469
196.8032  468.88926
195.8042  480.42601
194.80519  438.48857
193.80619  437.46561
192.80719  457.54724
191.80819  489.64354
190.80919  467.37856
189.81019  454.63514
188.81119  480.36662
187.81219  434.17953
186.81319  433.8409
185.81419  437.484
184.81518  436.43108
183.81618  475.28699
182.81718  504.74343
181.81818  456.79331
180.81918  471.23524
179.82018  484.07707
178.82118  451.77427
177.82218  463.01414
176.82318  457.33602
175.82418  471.89315
174.82517  431.28492
173.82617  407.03828
172.82717  436.7381
171.82817  418.47077
170.82917  403.2731
169.83017  407.27494
168.83117  402.90932
167.83217  449.65041
166.83317  433.56915
165.83417  461.35978
164.83516  424.93823
163.83616  423.74875
162.83716  468.47382
161.83816  455.24642
160.83916  452.77254
159.84016  422.90085
158.84116  460.96944
157.84216  443.10365
156.84316  441.94804
155.84416  452.15186
154.84515  464.73522
153.84615  483.18061
152.84715  467.93324
151.84815  402.58154
150.84915  415.40226
149.85015  452.27136
148.85115  450.04673
147.85215  449.90789
146.85315  458.37325
145.85415  409.09254
144.85514  418.27349
143.85614  408.5337
142.85714  486.98338
141.85814  464.36169
140.85914  466.35638
139.86014  476.51105
138.86114  415.5521
137.86214  427.11493
136.86314  453.71537
135.86414  417.82715
134.86513  451.68698
133.86613  407.00134
132.86713  402.59272
131.86813  454.19853
130.86913  417.92423
129.87013  399.54937
128.87113  413.05981
127.87213  422.44027
126.87313  427.23226
125.87413  392.59472
124.87512  355.7781
123.87612  376.2123
122.87712  405.9414
121.87812  435.24969
120.87912  423.7458
119.88012  479.65298
118.88112  553.72697
117.88212  547.17353
116.88312  513.37922
115.88412  511.13195
114.88511  445.56517
113.88611  460.77753
112.88711  462.58242
111.88811  446.92822
110.88911  445.37201
109.89011  506.6464
108.89111  450.54058
107.89211  449.29421
106.89311  446.16275
105.89411  441.04452
104.8951  435.80661
103.8961  411.56664
102.8971  419.64857
101.8981  405.20274
100.8991  418.10858
99.9001  462.75471
98.901099  415.04533
97.902098  410.7884
96.903097  444.81409
95.904096  446.53408
94.905095  469.33223
93.906094  444.83262
92.907093  435.58326
91.908092  388.08592
90.909091  427.70933
89.91009  465.62756
88.911089  525.09307
87.912088  609.42065
86.913087  628.85461
85.914086  551.14512
84.915085  701.53787
83.916084  806.21223
82.917083  602.56018
81.918082  461.07626
80.919081  409.59424
79.92008  388.16026
78.921079  365.24531
77.922078  377.42246
76.923077  410.6689
75.924076  455.34006
74.925075  511.30965
73.926074  512.26993
72.927073  479.5469
71.928072  438.56828
70.929071  390.18743
69.93007  360.93942
68.931069  347.86958
67.932068  341.19926
66.933067  356.67566
65.934066  356.03196
64.935065  348.05296
63.936064  337.01877
62.937063  325.78207
61.938062  331.63412
60.939061  292.63163
59.94006  310.51766
58.941059  275.29232
57.942058  287.47567
56.943057  317.99107
55.944056  327.78313
54.945055  331.36363
53.946054  304.21412
52.947053  314.68818
51.948052  317.75777
50.949051  316.32042
49.95005  339.51404
48.951049  317.94466
47.952048  281.94509
46.953047  310.06688
45.954046  315.89583
44.955045  311.62897
43.956044  294.40428
42.957043  279.62207
41.958042  309.27541
40.959041  311.78629
39.96004  256.19004
38.961039  256.18791
37.962038  269.10921
36.963037  257.18792
35.964036  250.09904
34.965035  265.40661
33.966034  263.44464
32.967033  276.88798
31.968032  276.68313
30.969031  261.46527
29.97003  268.24165
28.971029  283.41538
27.972028  282.87116
26.973027  293.08386
25.974026  291.50877
24.975025  307.70188
23.976024  275.09747
22.977023  290.99262
21.978022  305.84395
20.979021  301.68516
19.98002  271.24645
18.981019  266.70418
17.982018  240.83527
16.983017  257.98325
15.984016  260.3942
14.985015  270.88785
13.986014  263.48168
12.987013  241.58566
11.988012  276.64069
10.989011  243.86851
9.99001  254.55925
8.991009  267.52336
7.992008  236.05684
6.993007  240.11382
5.994006  276.29971
4.995005  255.0259
3.996004  280.91551
2.997003  298.73878
1.998002  258.83314
0.999001  280.78774
0  293.08267

# Region:                       Au 4f 10 eV
# Spectrum ID:                  3
# Acquisition Date:             09/19/24 18:18:01 UTC
# Analysis Method:              XPS
# Analyzer:                     PHOIBOS MCD5 Analyzer
# Analyzer Lens:                LargeArea:1.5kV
# Analyzer Slit:                8:7dia.\B:open
# Scan Mode:                    FixedAnalyzerTransmission
# Curves/Scan:                  1
# Values/Curve:                 271
# Dwell Time:                   0.5
# Excitation Energy:            1253.64
# Binding Energy:               100
# Pass Energy:                  10
# Bias Voltage:                 90
# Detector Voltage:             3000
# Eff. Workfunction:            4.543
# Source:                       X-Ray Dummy
# Comment:                      flood gun operated at 0.04 mA 5 eV
#
# Cycle: 0
# Number of Scans: 10
#
# Cycle: 0, Curve: 0
# Acquisition Date:             09/19/24 18:18:01 UTC
#
# ColumnLabels:                 energy counts/s
#
100  129.29795
99.9  134.21843
99.8  134.23118
99.7  124.84962
99.6  128.30193
99.5  133.10191
99.4  131.63097
99.3  132.57847
99.2  132.9983
99.1  128.83075
99  131.75493
98.9  136.01457
98.8  134.10369
98.7  134.34887
98.6  129.799
98.5  134.52389
98.4  130.55357
98.3  127.50953
98.2  132.38367
98.1  125.68232
98  131.3592
97.9  131.52591
97.8  130.09182
97.7  130.04988
97.6  128.86453
97.5  130.53888
97.4  133.59168
97.3  130.22059
97.2  134.17326
97.1  138.12379
97  129.22823
96.9  126.37361
96.8  129.34277
96.7  134.20467
96.6  123.82443
96.5  126.48184
96.4  133.2034
96.3  130.32189
96.2  127.66327
96.1  137.47853
96  124.89493
95.9  127.88921
95.8  126.37912
95.7  130.86482
95.6  131.38384
95.5  129.51921
95.4  132.78899
95.3  127.73503
95.2  125.8302
95.1  130.657
95  129.1732
94.9  125.78441
94.8  130.19953
94.7  125.2353
94.6  136.0078
94.5  122.76331
94.4  129.23709
94.3  132.88334
94.2  130.11112
94.1  124.9017
94  130.34873
93.9  128.49706
93.8  135.5428
93.7  121.92715
93.6  130.34192
93.5  138.84028
93.4  134.32535
93.3  131.86973
93.2  129.60404
93.1  127.39391
93  133.48588
92.9  138.27609
92.8  131.48344
92.7  130.41975
92.6  129.20876
92.5  123.27426
92.4  124.784
92.3  126.99495
92.2  140.27616
92.1  128.45606
92  130.01438
91.9  134.02966
91.8  123.9308
91.7  131.15578
91.6  134.05505
91.5  127.28168
91.4  125.97125
91.3  128.52549
91.2  129.59758
91.1  131.16626
91  140.45708
90.9  129.55251
90.8  133.43682
90.7  131.91846
90.6  136.6125
90.5  131.28155
90.4  130.8486
90.3  140.96296
90.2  135.36576
90.1  124.14076
90  122.91649
89.9  130.7347
89.8  132.84513
89.7  133.38523
89.6  132.32292
89.5  134.58996
89.4  139.99407
89.3  137.28894
89.2  144.1292
89.1  144.26918
89  153.62461
88.9  156.68624
88.8  147.80013
88.7  158.36606
88.6  170.12541
88.5  175.95265
88.4  176.00771
88.3  189.69324
88.2  199.13894
88.1  205.18368
88  194.50434
87.9  203.49665
87.8  210.2416
87.7  214.11328
87.6  208.38558
87.5  189.15579
87.4  197.96958
87.3  185.77592
87.2  169.7633
87.1  176.56865
87  168.17008
86.9  170.55831
86.8  163.32302
86.7  159.45125
86.6  158.2039
86.5  149.78184
86.4  147.21554
86.3  148.1233
86.2  150.08697
86.1  146.67182
86  143.9805
85.9  145.56799
85.8  146.46048
85.7  156.91067
85.6  144.5419
85.5  157.98238
85.4  154.18088
85.3  152.32669
85.2  161.01155
85.1  159.42146
85  166.30157
84.9  181.45078
84.8  180.97354
84.7  191.09011
84.6  212.45724
84.5  229.74973
84.4  232.93277
84.3  240.94902
84.2  241.56938
84.1  228.16512
84  231.05849
83.9  228.63825
83.8  207.39887
83.7  193.83926
83.6  187.11451
83.5  178.14027
83.4  172.46106
83.3  166.51843
83.2  158.85106
83.1  160.22446
83  157.97694
82.9  153.82497
82.8  155.01442
82.7  145.69128
82.6  142.93076
82.5  137.22217
82.4  146.55009
82.3  134.90272
82.2  142.62199
82.1  135.07472
82  131.71995
81.9  133.17027
81.8  129.99407
81.7  133.77472
81.6  121.98877
81.5  123.80429
81.4  126.42485
81.3  126.8646
81.2  121.69668
81.1  116.4525
81  121.894
80.9  117.61284
80.8  120.63089
80.7  123.66308
80.6  131.37476
80.5  122.15573
80.4  124.74076
80.3  117.07887
80.2  116.30926
80.1  117.53047
80  117.64053
79.9  121.77647
79.8  123.12109
79.7  124.62496
79.6  121.96211
79.5  123.30662
79.4  117.46778
79.3  117.47362
79.2  119.92747
79.1  119.5972
79  116.29051
78.9  127.303
78.8  124.51179
78.7  120.98312
78.6  121.32531
78.5  119.43818
78.4  123.13726
78.3  127.48611
78.2  117.02663
78.1  117.07422
78  122.27123
77.9  119.37159
77.8  120.33633
77.7  117.57849
77.6  114.95295
77.5  119.67825
77.4  118.31601
77.3  126.77666
77.2  123.97913
77.1  123.62523
77  123.99007
76.9  124.62768
76.8  119.97828
76.7  125.56705
76.6  126.54871
76.5  123.56375
76.4  128.86672
76.3  127.73462
76.2  133.78089
76.1  136.64213
76  137.47175
75.9  135.97467
75.8  147.9859
75.7  141.78273
75.6  148.56798
75.5  148.73438
75.4  152.27162
75.3  151.6453
75.2  160.01178
75.1  158.52587
75  154.99473
74.9  161.51053
74.8  158.89219
74.7  157.70256
74.6  158.45011
74.5  170.49971
74.4  159.2257
74.3  166.12873
74.2  170.99903
74.1  167.53045
74  163.28814
73.9  160.78506
73.8  147.2901
73.7  150.8252
73.6  147.90395
73.5  154.60659
73.4  157.55607
73.3  151.60117
73.2  145.37878
73.1  152.51343
73  143.83117

# Operation:                    Peak Location
# Parameter: "Peak-Annotation" = Peak at <Peak (x):@>
#
# Result:
# Number of Results:            1
# Parameter: "Peak (x)" = 84.199460735047978 eV +- 0.015927570105088485
# Parameter: "Peak (y)" = 238.12488566374395 cps
# Parameter: "Fit Start" = 1168.8400000000001 eV
# Parameter: "Fit End" = 1170.0400000000002 eV
#
# Result Name:                  Peak Location
# Number of Curves:             1
#
# Curve:                        0
# Values/Curve:                 13
#
84.8  181.98108
84.7  196.67303
84.6  210.5403
84.5  222.63465
84.4  232.052
84.3  238.04342
84.2  240.11335
84.1  238.08728
84  232.13604
83.9  222.75202
83.8  210.68191
83.7  196.82867
83.6  182.1407

# Operation:                    Peak FWHM
# Range Start:                  93.8376
# Range End:                    80.6227
# Parameter: "Transition" = 
# Parameter: "Label" = 
# Parameter: "Background Method" = Linear
# Parameter: "FWHM-Annotation" = <Label>\n<Transition>\nSignal-BG = <Signal-BG:@>\nFWHM = <FWHM:@>
# Parameter: "Automatic Range" = false
#
# Result:
# Number of Results:            1
# Parameter: "Transition" = 
# Parameter: "Label" = 
# Parameter: "Center" = 84.199460735047978 eV +- 0.015927570105088485
# Parameter: "FWHM" = 1.3800000000001091 eV
# Parameter: "Signal" = 236.22313810787244 cps
# Parameter: "Signal-BG" = 112.9419205951809 cps
# Parameter: "PktLeft_x" = 1168.7699445691164
# Parameter: "PktLeft_y" = 901.88779141761984
# Parameter: "PktRight_x" = 1170.1532290472792
# Parameter: "PktRight_y" = 895.53296937209473
#
# Result Name:                  Background
# Number of Curves:             1
#
# Curve:                        0
# Values/Curve:                 132
#
93.8  132.11145
93.7  132.01957
93.6  131.92769
93.5  131.83581
93.4  131.74393
93.3  131.65205
93.2  131.56017
93.1  131.46829
93  131.37641
92.9  131.28453
92.8  131.19265
92.7  131.10077
92.6  131.00889
92.5  130.91701
92.4  130.82513
92.3  130.73325
92.2  130.64136
92.1  130.54948
92  130.4576
91.9  130.36572
91.8  130.27384
91.7  130.18196
91.6  130.09008
91.5  129.9982
91.4  129.90632
91.3  129.81444
91.2  129.72256
91.1  129.63068
91  129.5388
90.9  129.44692
90.8  129.35504
90.7  129.26316
90.6  129.17128
90.5  129.0794
90.4  128.98752
90.3  128.89564
90.2  128.80376
90.1  128.71188
90  128.62
89.9  128.52812
89.8  128.43624
89.7  128.34436
89.6  128.25248
89.5  128.1606
89.4  128.06872
89.3  127.97684
89.2  127.88496
89.1  127.79308
89  127.7012
88.9  127.60932
88.8  127.51744
88.7  127.42556
88.6  127.33368
88.5  127.2418
88.4  127.14992
88.3  127.05804
88.2  126.96616
88.1  126.87428
88  126.7824
87.9  126.69052
87.8  126.59864
87.7  126.50676
87.6  126.41488
87.5  126.323
87.4  126.23112
87.3  126.13924
87.2  126.04736
87.1  125.95548
87  125.8636
86.9  125.77171
86.8  125.67983
86.7  125.58795
86.6  125.49607
86.5  125.40419
86.4  125.31231
86.3  125.22043
86.2  125.12855
86.1  125.03667
86  124.94479
85.9  124.85291
85.8  124.76103
85.7  124.66915
85.6  124.57727
85.5  124.48539
85.4  124.39351
85.3  124.30163
85.2  124.20975
85.1  124.11787
85  124.02599
84.9  123.93411
84.8  123.84223
84.7  123.75035
84.6  123.65847
84.5  123.56659
84.4  123.47471
84.3  123.38283
84.2  123.29095
84.1  123.19907
84  123.10719
83.9  123.01531
83.8  122.92343
83.7  122.83155
83.6  122.73967
83.5  122.64779
83.4  122.55591
83.3  122.46403
83.2  122.37215
83.1  122.28027
83  122.18839
82.9  122.09651
82.8  122.00463
82.7  121.91275
82.6  121.82087
82.5  121.72899
82.4  121.63711
82.3  121.54523
82.2  121.45335
82.1  121.36147
82  121.26959
81.9  121.17771
81.8  121.08583
81.7  120.99395
81.6  120.90206
81.5  120.81018
81.4  120.7183
81.3  120.62642
81.2  120.53454
81.1  120.44266
81  120.35078
80.9  120.2589
80.8  120.16702
80.7  120.07514

# Region:                       Rh 3d 10 eV
# Spectrum ID:                  4
# Acquisition Date:             09/19/24 18:38:38 UTC
# Analysis Method:              XPS
# Analyzer:                     PHOIBOS MCD5 Analyzer
# Analyzer Lens:                LargeArea:1.5kV
# Analyzer Slit:                8:7dia.\B:open
# Scan Mode:                    FixedAnalyzerTransmission
# Curves/Scan:                  1
# Values/Curve:                 221
# Dwell Time:                   0.5
# Excitation Energy:            1253.64
# Binding Energy:               321
# Pass Energy:                  10
# Bias Voltage:                 90
# Detector Voltage:             3000
# Eff. Workfunction:            4.543
# Source:                       X-Ray Dummy
# Comment:                      flood gun operated at 0.04 mA 5 eV
#
# Cycle: 0
# Number of Scans: 10
#
# Cycle: 0, Curve: 0
# Acquisition Date:             09/19/24 18:38:38 UTC
#
# ColumnLabels:                 energy counts/s
#
321  200.64285
320.9  212.03061
320.8  198.88975
320.7  201.78252
320.6  207.33362
320.5  214.1568
320.4  211.62392
320.3  215.76109
320.2  209.42098
320.1  212.02511
320  213.12362
319.9  207.08133
319.8  200.27845
319.7  218.03011
319.6  218.3283
319.5  227.5204
319.4  211.33646
319.3  223.01923
319.2  219.148
319.1  220.24472
319  213.31875
318.9  220.79349
318.8  219.06366
318.7  214.63713
318.6  212.95489
318.5  213.69995
318.4  210.03773
318.3  219.91698
318.2  220.86822
318.1  203.73019
318  221.76722
317.9  218.56723
317.8  221.50145
317.7  214.85377
317.6  219.14121
317.5  222.38248
317.4  218.94746
317.3  214.32424
317.2  222.80086
317.1  213.97914
317  222.28092
316.9  221.45056
316.8  216.51538
316.7  226.36023
316.6  222.00165
316.5  216.9528
316.4  228.82232
316.3  226.52151
316.2  228.81847
316.1  226.54367
316  221.38977
315.9  214.99009
315.8  222.74384
315.7  223.02511
315.6  226.43955
315.5  230.562
315.4  234.68602
315.3  226.47713
315.2  229.14974
315.1  234.29931
315  228.90904
314.9  237.34715
314.8  238.14512
314.7  237.61176
314.6  233.25433
314.5  247.35347
314.4  241.96836
314.3  239.36724
314.2  242.08683
314.1  237.56287
314  233.95311
313.9  239.76275
313.8  241.51809
313.7  242.98187
313.6  242.97238
313.5  243.66915
313.4  243.81336
313.3  249.34107
313.2  244.43296
313.1  235.1288
313  237.55509
312.9  248.03266
312.8  246.41807
312.7  250.01666
312.6  242.26423
312.5  251.33589
312.4  250.64855
312.3  246.82157
312.2  254.34418
312.1  250.94029
312  257.36438
311.9  259.61866
311.8  254.18152
311.7  254.42733
311.6  257.37309
311.5  264.25252
311.4  252.80527
311.3  266.09863
311.2  257.98626
311.1  254.99464
311  246.36073
310.9  259.64111
310.8  265.57618
310.7  260.27149
310.6  262.24327
310.5  270.80124
310.4  276.20409
310.3  272.24625
310.2  271.23874
310.1  265.49824
310  280.72039
309.9  275.92618
309.8  273.20809
309.7  264.35467
309.6  264.26446
309.5  268.7355
309.4  263.25393
309.3  264.48001
309.2  256.70285
309.1  266.43642
309  270.56189
308.9  256.43769
308.8  255.95003
308.7  264.94794
308.6  260.13001
308.5  255.7906
308.4  252.33352
308.3  256.29637
308.2  258.68969
308.1  263.49934
308  260.83456
307.9  267.89056
307.8  275.41916
307.7  267.91025
307.6  263.38409
307.5  266.92215
307.4  268.67125
307.3  270.34974
307.2  263.32496
307.1  271.52663
307  278.14188
306.9  277.74056
306.8  269.07606
306.7  269.11394
306.6  273.28127
306.5  266.51705
306.4  269.89514
306.3  261.564
306.2  263.45661
306.1  258.83882
306  257.10361
305.9  267.14492
305.8  249.77685
305.7  247.00767
305.6  252.45526
305.5  254.64446
305.4  237.8432
305.3  229.85428
305.2  238.50899
305.1  228.60059
305  230.9104
304.9  234.1394
304.8  223.81103
304.7  217.11801
304.6  222.86973
304.5  220.44118
304.4  218.53264
304.3  216.24243
304.2  217.11303
304.1  214.48671
304  207.96154
303.9  209.88674
303.8  211.74173
303.7  203.92198
303.6  205.44215
303.5  207.703
303.4  203.63473
303.3  205.98675
303.2  200.71015
303.1  208.21589
303  200.48499
302.9  201.684
302.8  197.47407
302.7  191.05694
302.6  192.36943
302.5  198.74489
302.4  192.82285
302.3  189.30457
302.2  195.07338
302.1  187.97717
302  193.7304
301.9  190.77138
301.8  194.06248
301.7  177.99938
301.6  191.16627
301.5  186.52811
301.4  195.46724
301.3  187.74817
301.2  173.52783
301.1  176.21204
301  178.76248
300.9  182.13826
300.8  183.89763
300.7  186.54265
300.6  179.4439
300.5  187.18719
300.4  183.74634
300.3  186.56941
300.2  178.47049
300.1  180.40763
300  178.33624
299.9  175.97044
299.8  172.98594
299.7  177.69357
299.6  178.19491
299.5  171.25843
299.4  173.3349
299.3  177.46142
299.2  174.8726
299.1  187.04459
299  169.63162

# Operation:                    Multi Peak Fit
# Parameter: "Peak Function" = Convolution of Doniach-Sunjic and Gauss
# Parameter: "Background Function" = Shirley
# Parameter: "Baseline" = Constant
# Parameter: "LM Parameters/Max Iterations" = 200
# Parameter: "LM Parameters/Tolerance" = 2.2204459999999999e-16
# Parameter: "Baseline/BL_I/Value" = nan counts
# Parameter: "Peak 1/C/Value" = 943.6400000000001 eV
# Parameter: "Peak 1/A/Value" = nan counts eV
# Parameter: "Peak 1/FDS/Value" = nan eV
# Parameter: "Peak 1/FG/Value" = nan eV
# Parameter: "Peak 1/a/Value" = 0
# Parameter: "Peak 1/k/Value" = nan [1/eV]
# Parameter: "Peak 2/C/Value" = 946.6400000000001 eV
# Parameter: "Peak 2/A/Value" = nan counts eV
# Parameter: "Peak 2/FDS/Value" = nan eV
# Parameter: "Peak 2/FDS/Constraint" = Dependent: FDS1
# Parameter: "Peak 2/FG/Value" = nan eV
# Parameter: "Peak 2/FG/Constraint" = Dependent: FG1
# Parameter: "Peak 2/a/Value" = 0
# Parameter: "Peak 2/k/Value" = nan [1/eV]
#
# Result:
# Number of Results:            5
# Parameter: "Baseline/BL_I/Value" = 833.93177343977061 counts +- 11.297543526185587
# Parameter: "Peak 1/C/Value" = 943.59440944836024 eV +- 0.10081406484922882
# Parameter: "Peak 1/C/Constraint" = Restricted: 932.64 .. 954.64
# Parameter: "Peak 1/Relative Area/Value" = 76.148066126193228 %
# Parameter: "Peak 1/A/Value" = 8595.5022914285873 counts eV +- 718379388.8929646
# Parameter: "Peak 1/FDS/Value" = 4.6655646175169192 eV +- 0.61888493759785967
# Parameter: "Peak 1/FG/Value" = 0.0010033083793472872 eV +- 223.62214499342545
# Parameter: "Peak 1/F/Value" = 10.370000000000005 eV
# Parameter: "Peak 1/a/Value" = 0.36237626264635003 +- 0.10649421056797503
# Parameter: "Peak 1/k/Value" = 0 [1/eV] +- 0
# Parameter: "Peak 2/C/Value" = 947.03940668914061 eV +- 0.31876332439204635
# Parameter: "Peak 2/C/Constraint" = Restricted: 932.64 .. 954.64
# Parameter: "Peak 2/Relative Area/Value" = 23.851933873806779 %
# Parameter: "Peak 2/A/Value" = 2692.3776623236822 counts eV +- 8606526.3972466849
# Parameter: "Peak 2/FDS/Value" = 4.6655646175169192 eV +- 0.61888493759785967
# Parameter: "Peak 2/FDS/Constraint" = Dependent: FDS1
# Parameter: "Peak 2/FG/Value" = 0.0010033083793472872 eV +- 223.62214499342545
# Parameter: "Peak 2/FG/Constraint" = Dependent: FG1
# Parameter: "Peak 2/F/Value" = 4.6649999999999636 eV
# Parameter: "Peak 2/F/Constraint" = Dependent: F1
# Parameter: "Peak 2/a/Value" = 3.2066601449207334e-05 +- 0.4444367547327599
# Parameter: "Peak 2/k/Value" = 0.033611152306104612 [1/eV] +- 0.053533082133029167
# Parameter: "Fit Result/ChiSquare" = 138.77389175354296
# Parameter: "Fit Result/Reduced ChiSquare" = 0.66398991269637775
# Parameter: "Fit Result/Abbe Factor" = 0.77641713313336624
# Parameter: "Fit Result/Q-Probability" = 0.9999488675701439
# Parameter: "Termination State" = ConvergedInParameter
#
# Result Name:                  Background
# Number of Curves:             1
#
# Curve:                        0
# Values/Curve:                 96
#
321  182.48187
320.76842  182.46655
320.53684  182.45074
320.30526  182.43439
320.07368  182.4175
319.84211  182.40003
319.61053  182.38195
319.37895  182.36323
319.14737  182.34384
318.91579  182.32374
318.68421  182.30289
318.45263  182.28124
318.22105  182.25876
317.98947  182.2354
317.75789  182.21109
317.52632  182.18579
317.29474  182.15943
317.06316  182.13195
316.83158  182.10327
316.6  182.07332
316.36842  182.04201
316.13684  182.00924
315.90526  181.97493
315.67368  181.93895
315.44211  181.90118
315.21053  181.8615
314.97895  181.81976
314.74737  181.77579
314.51579  181.72941
314.28421  181.68045
314.05263  181.62866
313.82105  181.57382
313.58947  181.51566
313.35789  181.45388
313.12632  181.38814
312.89474  181.31807
312.66316  181.24324
312.43158  181.1632
312.2  181.07739
311.96842  180.98523
311.73684  180.88602
311.50526  180.77899
311.27368  180.66326
311.04211  180.53783
310.81053  180.40155
310.57895  180.25312
310.34737  180.09107
310.11579  179.9137
309.88421  179.71912
309.65263  179.5052
309.42105  179.26956
309.18947  179.00963
308.95789  178.72262
308.72632  178.40571
308.49474  178.05612
308.26316  177.67145
308.03158  177.24999
307.8  176.79122
307.56842  176.29636
307.33684  175.76887
307.10526  175.21477
306.87368  174.64258
306.64211  174.06275
306.41053  173.48655
306.17895  172.92488
305.94737  172.38704
305.71579  171.87998
305.48421  171.40805
305.25263  170.97322
305.02105  170.57554
304.78947  170.21365
304.55789  169.88536
304.32632  169.58799
304.09474  169.31871
303.86316  169.0747
303.63158  168.85331
303.4  168.65208
303.16842  168.4688
302.93684  168.30149
302.70526  168.14838
302.47368  168.00793
302.24211  167.87877
302.01053  167.75971
301.77895  167.6497
301.54737  167.5478
301.31579  167.45322
301.08421  167.36523
300.85263  167.2832
300.62105  167.20658
300.38947  167.13488
300.15789  167.06765
299.92632  167.00451
299.69474  166.9451
299.46316  166.88912
299.23158  166.83629
299  166.78635

# Result Name:                  Combined
# Number of Curves:             1
#
# Curve:                        0
# Values/Curve:                 96
#
321  210.71887
320.76842  211.1327
320.53684  211.56187
320.30526  212.00724
320.07368  212.46976
319.84211  212.95042
319.61053  213.45032
319.37895  213.97063
319.14737  214.51261
318.91579  215.07762
318.68421  215.66713
318.45263  216.28275
318.22105  216.9262
317.98947  217.59935
317.75789  218.30423
317.52632  219.04304
317.29474  219.81818
317.06316  220.63223
316.83158  221.48801
316.6  222.38859
316.36842  223.33727
316.13684  224.33764
315.90526  225.39357
315.67368  226.50924
315.44211  227.68913
315.21053  228.93802
314.97895  230.26094
314.74737  231.66319
314.51579  233.15018
314.28421  234.72735
314.05263  236.39995
313.82105  238.17275
313.58947  240.04957
313.35789  242.03267
313.12632  244.12185
312.89474  246.31325
312.66316  248.59768
312.43158  250.95861
312.2  253.36957
311.96842  255.79134
311.73684  258.16923
311.50526  260.43129
311.27368  262.48891
311.04211  264.2416
310.81053  265.58773
310.57895  266.44197
310.34737  266.75706
310.11579  266.54429
309.88421  265.88452
309.65263  264.92347
309.42105  263.8509
309.18947  262.87002
308.95789  262.16643
308.72632  261.88338
308.49474  262.10522
308.26316  262.8468
308.03158  264.0458
307.8  265.55708
307.56842  267.15192
307.33684  268.52878
307.10526  269.3434
306.87368  269.26113
306.64211  268.02374
306.41053  265.50979
306.17895  261.76388
305.94737  256.9811
305.71579  251.45412
305.48421  245.50623
305.25263  239.43456
305.02105  233.47624
304.78947  227.79781
304.55789  222.50066
304.32632  217.63425
304.09474  213.21079
303.86316  209.21827
303.63158  205.63046
303.4  202.41398
303.16842  199.53297
302.93684  196.95196
302.70526  194.63745
302.47368  192.55875
302.24211  190.68826
302.01053  189.00147
301.77895  187.47677
301.54737  186.09525
301.31579  184.84036
301.08421  183.69767
300.85263  182.6546
300.62105  181.70018
300.38947  180.82481
300.15789  180.02011
299.92632  179.27874
299.69474  178.59425
299.46316  177.96098
299.23158  177.37393
299  176.82869

# Result Name:                  Peak 1
# Number of Curves:             1
#
# Curve:                        0
# Values/Curve:                 96
#
321  208.81186
320.76842  209.16452
320.53684  209.52956
320.30526  209.90764
320.07368  210.2995
319.84211  210.70592
319.61053  211.12774
319.37895  211.56586
319.14737  212.02127
318.91579  212.49501
318.68421  212.9882
318.45263  213.50208
318.22105  214.03796
317.98947  214.59727
317.75789  215.18154
317.52632  215.79244
317.29474  216.43177
317.06316  217.10147
316.83158  217.80364
316.6  218.54053
316.36842  219.31459
316.13684  220.12842
315.90526  220.98482
315.67368  221.88675
315.44211  222.83734
315.21053  223.83986
314.97895  224.89768
314.74737  226.01417
314.51579  227.19264
314.28421  228.43612
314.05263  229.74715
313.82105  231.12742
313.58947  232.57726
313.35789  234.09498
313.12632  235.67586
312.89474  237.31085
312.66316  238.98489
312.43158  240.67466
312.2  242.34592
311.96842  243.9505
311.73684  245.42342
311.50526  246.68089
311.27368  247.62069
311.04211  248.12665
310.81053  248.07925
310.57895  247.37274
310.34737  245.93683
310.11579  243.75708
309.88421  240.88619
309.65263  237.43997
309.42105  233.57781
309.18947  229.47458
308.95789  225.29352
308.72632  221.1677
308.49474  217.1924
308.26316  213.42646
308.03158  209.89881
307.8  206.6169
307.56842  203.57472
307.33684  200.75939
307.10526  198.15587
306.87368  195.74986
306.64211  193.52909
306.41053  191.48338
306.17895  189.60385
305.94737  187.88201
305.71579  186.30899
305.48421  184.87521
305.25263  183.5704
305.02105  182.38392
304.78947  181.30511
304.55789  180.32363
304.32632  179.42972
304.09474  178.61437
303.86316  177.86936
303.63158  177.18729
303.4  176.56157
303.16842  175.98632
302.93684  175.45636
302.70526  174.96708
302.47368  174.51444
302.24211  174.09484
302.01053  173.70512
301.77895  173.34245
301.54737  173.00435
301.31579  172.6886
301.08421  172.39322
300.85263  172.11646
300.62105  171.85674
300.38947  171.61264
300.15789  171.3829
299.92632  171.16638
299.69474  170.96205
299.46316  170.76898
299.23158  170.58633
299  170.41333

# Result Name:                  Peak 2
# Number of Curves:             1
#
# Curve:                        0
# Values/Curve:                 96
#
321  184.38888
320.76842  184.43473
320.53684  184.48305
320.30526  184.534
320.07368  184.58776
319.84211  184.64454
319.61053  184.70454
319.37895  184.768
319.14737  184.83518
318.91579  184.90635
318.68421  184.98182
318.45263  185.06192
318.22105  185.147
317.98947  185.23748
317.75789  185.33378
317.52632  185.43639
317.29474  185.54584
317.06316  185.66271
316.83158  185.78765
316.6  185.92138
316.36842  186.06469
316.13684  186.21846
315.90526  186.38368
315.67368  186.56144
315.44211  186.75298
315.21053  186.95966
314.97895  187.18302
314.74737  187.4248
314.51579  187.68695
314.28421  187.97167
314.05263  188.28147
313.82105  188.61916
313.58947  188.98797
313.35789  189.39157
313.12632  189.83414
312.89474  190.32046
312.66316  190.85603
312.43158  191.44715
312.2  192.10105
311.96842  192.82607
311.73684  193.63183
311.50526  194.52939
311.27368  195.53149
311.04211  196.65278
310.81053  197.91003
310.57895  199.32235
310.34737  200.9113
310.11579  202.70091
309.88421  204.71745
309.65263  206.9887
309.42105  209.54265
309.18947  212.40507
308.95789  215.59553
308.72632  219.12139
308.49474  222.96894
308.26316  227.09178
308.03158  231.39698
307.8  235.73141
307.56842  239.87356
307.33684  243.53826
307.10526  246.4023
306.87368  248.15386
306.64211  248.55739
306.41053  247.51296
306.17895  245.08491
305.94737  241.48613
305.71579  237.0251
305.48421  232.03907
305.25263  226.83738
305.02105  221.66786
304.78947  216.70635
304.55789  212.0624
304.32632  207.79252
304.09474  203.91513
303.86316  200.42361
303.63158  197.29648
303.4  194.50449
303.16842  192.01545
302.93684  189.79709
302.70526  187.81875
302.47368  186.05224
302.24211  184.47219
302.01053  183.05606
301.77895  181.78402
301.54737  180.6387
301.31579  179.60498
301.08421  178.66968
300.85263  177.82134
300.62105  177.05002
300.38947  176.34705
300.15789  175.70486
299.92632  175.11686
299.69474  174.5773
299.46316  174.08112
299.23158  173.6239
299  173.20172

# Result Name:                  Residuum
# Number of Curves:             1
#
# Curve:                        0
# Values/Curve:                 221
#
321  -10.066177
320.9  1.1446535
320.8  -12.175916
320.7  -9.4656869
320.6  -4.100031
320.5  2.5347274
320.4  -0.1896244
320.3  3.7529485
320.2  -2.7849668
320.1  -0.38191801
320  0.5121562
319.9  -5.7380219
319.8  -12.752332
319.7  4.7842839
319.6  4.8637042
319.5  13.833213
319.4  -2.5772324
319.3  8.8750177
319.2  4.7691427
319.1  5.6269812
319  -1.5422142
318.9  5.6848193
318.8  3.7027081
318.7  -0.98083582
318.6  -2.9249202
318.5  -2.4466944
318.4  -6.3808777
318.3  3.2211506
318.2  3.8897499
318.1  -13.536487
318  4.2066011
317.9  0.70676777
317.8  3.3350679
317.7  -3.624772
317.6  0.34406498
317.5  3.2600969
317.4  -0.50697182
317.3  -5.4692884
317.2  2.6610046
317.1  -6.5145275
317  1.4257581
316.9  0.2259669
316.8  -5.0868293
316.7  4.3719802
316.6  -0.38134741
316.5  -5.8339061
316.4  5.6226409
316.3  2.8993245
316.2  4.7639213
316.1  2.0466046
316  -3.5602984
315.9  -10.423794
315.8  -3.1450286
315.7  -3.3502466
315.6  -0.43418302
315.5  3.1776422
315.4  6.7783944
315.3  -1.9668003
315.2  0.15606299
315.1  4.7420392
315  -1.2261137
314.9  6.6194189
314.8  6.8096639
314.7  5.6530028
314.6  0.65624442
314.5  14.099604
314.4  8.0418214
314.3  4.7506918
314.2  6.7625287
314.1  1.5126554
314  -2.841543
313.9  2.204756
313.8  3.1775561
313.7  3.8393061
313.6  3.0080905
313.5  2.8632786
313.4  2.1459822
313.3  6.7922949
313.2  0.98304098
313.1  -9.2417173
313  -7.7550305
312.9  1.7645546
312.8  -0.82553667
312.7  1.7811504
312.6  -6.9781988
312.5  1.0732541
312.4  -0.6454746
312.3  -5.5125378
312.2  0.96428124
312.1  -3.4876519
312  1.890163
311.9  3.1045082
311.8  -3.3610204
311.7  -4.1262577
311.6  -2.1677695
311.5  3.7551722
311.4  -8.610252
311.3  3.8112136
311.2  -5.1184746
311.1  -8.8644349
311  -18.181416
310.9  -5.504883
310.8  -0.087176657
310.7  -5.8165007
310.6  -4.1717541
310.5  4.1599832
310.4  9.4385325
310.3  5.4572027
310.2  4.523438
310.1  -1.0521597
310  14.417481
309.9  9.9424903
309.8  7.6024615
309.7  -0.82859916
309.6  -0.46787709
309.5  4.4662375
309.4  -0.55677251
309.3  1.1070148
309.2  -6.2689199
309.1  3.8149265
309  8.2267248
308.9  -5.6863285
308.8  -6.0472403
308.7  2.9859545
308.6  -1.8928687
308.5  -6.3916097
308.4  -10.106117
308.3  -6.4957834
308.2  -4.544277
308.1  -0.25704111
308  -3.513224
307.9  2.8969914
307.8  9.742952
307.7  1.5349666
307.6  -3.6836981
307.5  -0.80626408
307.4  0.34118865
307.3  1.5052597
307.2  -5.9181582
307.1  2.0286151
307  8.5589851
306.9  8.2663314
306.8  -0.076199331
306.7  0.51197432
306.6  5.467544
306.5  -0.26679124
306.4  4.380499
306.3  -2.4503042
306.2  1.1602045
306.1  -1.5402776
306  -1.1806478
305.9  11.108574
305.8  -3.8845742
305.7  -4.1783956
305.6  3.8187816
305.5  8.6067515
305.4  -5.5698771
305.3  -10.92948
305.2  0.34047698
305.1  -6.9829761
305  -2.1322276
304.9  3.5824271
304.8  -4.3245979
304.7  -8.667537
304.6  -0.64211129
304.5  -0.87682934
304.4  -0.6735485
304.3  -0.93490253
304.2  1.8815859
304.1  1.11898
304  -3.6232531
303.9  0.006023621
303.8  3.4884808
303.7  -2.7778554
303.6  0.22439617
303.5  3.8988401
303.4  1.1785785
303.3  4.8159403
303.2  0.76491273
303.1  9.4393302
303  2.8230016
302.9  5.0851552
302.8  1.8895848
302.7  -3.5594795
302.6  -1.322819
302.5  5.935225
302.4  0.85636034
302.3  -1.8560916
302.2  4.6831851
302.1  -1.6760681
302  4.7823745
301.9  2.4984995
301.8  6.4362355
301.7  -9.0072364
301.6  4.7536606
301.5  0.68521256
301.4  10.171018
301.3  2.9767356
301.2  -10.739566
301.1  -7.5710491
301  -4.5550381
300.9  -0.73150066
300.8  1.4586885
300.7  4.5184266
300.6  -2.1809546
300.5  5.9471153
300.4  2.87713
300.3  6.0578193
300.2  -1.6961222
300.1  0.57393782
300  -1.176037
299.9  -3.2313874
299.8  -5.9159421
299.7  -0.91838512
299.6  -0.13668856
299.5  -6.801983
299.4  -4.4630926
299.3  -0.082543649
299.2  -2.4253679
299.1  9.9849254
299  -7.1971285

# Operation:                    Peak Location
# Range Start:                  308.354
# Range End:                    302.717
# Parameter: "Peak-Annotation" = Peak at <Peak (x):@>
#
# Result:
# Number of Results:            1
# Parameter: "Peak (x)" = 307.10039205284511 eV +- 0.097290851718936783
# Parameter: "Peak (y)" = 271.67310959085529 cps
# Parameter: "Fit Start" = 945.44000000000005 eV
# Parameter: "Fit End" = 948.54000000000008 eV
#
# Result Name:                  Peak Location
# Number of Curves:             1
#
# Curve:                        0
# Values/Curve:                 32
#
308.2  259.11424
308.1  261.32832
308  263.33583
307.9  265.13548
307.8  266.72607
307.7  268.10658
307.6  269.27611
307.5  270.23389
307.4  270.9793
307.3  271.51184
307.2  271.83117
307.1  271.93707
307  271.82949
306.9  271.50849
306.8  270.97428
306.7  270.22721
306.6  269.26776
306.5  268.09658
306.4  266.71442
306.3  265.12218
306.2  263.3209
306.1  261.31176
306  259.09606
305.9  256.67525
305.8  254.05089
305.7  251.22469
305.6  248.19846
305.5  244.97417
305.4  241.55388
305.3  237.9398
305.2  234.13423
305.1  230.1396

# Operation:                    7-21-25 fit
# Range Start:                  322.3
# Range End:                    298.17
# Parameter: "Peak Function" = Voigt
# Parameter: "Background Function" = Shirley
# Parameter: "Baseline" = Constant
# Parameter: "LM Parameters/Max Iterations" = 200
# Parameter: "LM Parameters/Tolerance" = 2.2204459999999999e-16
# Parameter: "Baseline/BL_I/Value" = 870 counts
# Parameter: "Baseline/BL_I/Constraint" = Fixed: 870
# Parameter: "Peak 1/Transition" = 3d 5/2
# Parameter: "Peak 1/Label" = Metallic
# Parameter: "Peak 1/C/Value" = 946.8850000000001 eV
# Parameter: "Peak 1/A/Value" = 0 counts eV
# Parameter: "Peak 1/FL/Value" = nan eV
# Parameter: "Peak 1/FG/Value" = 4.7009999999999996 eV
# Parameter: "Peak 1/a/Value" = 0.13700000000000001
# Parameter: "Peak 1/k/Value" = 0.055 [1/eV]
# Parameter: "Peak 1/k/Constraint" = Fixed: 0.055
# Parameter: "Peak 2/Transition" = 3d 3/2
# Parameter: "Peak 2/Label" = Metallic
# Parameter: "Peak 2/C/Value" = 942.6400000000001 eV
# Parameter: "Peak 2/C/Constraint" = Dependent: C1 - 4.74
# Parameter: "Peak 2/A/Value" = 0 counts eV
# Parameter: "Peak 2/A/Constraint" = Dependent: A1*2/3
# Parameter: "Peak 2/FL/Value" = nan eV
# Parameter: "Peak 2/FG/Value" = nan eV
# Parameter: "Peak 2/FG/Constraint" = Dependent: FG1
# Parameter: "Peak 2/a/Value" = 0
# Parameter: "Peak 2/k/Value" = 0.043999999999999997 [1/eV]
# Parameter: "Peak 2/k/Constraint" = Fixed: 0.044
# Parameter: "Peak 3/Transition" = 3d 5/2
# Parameter: "Peak 3/Label" = Oxidized
# Parameter: "Peak 3/C/Value" = 945.72300000000018 eV
# Parameter: "Peak 3/C/Constraint" = Fixed: 945.723
# Parameter: "Peak 3/A/Value" = 600 counts eV
# Parameter: "Peak 3/FL/Value" = nan eV
# Parameter: "Peak 3/FG/Value" = 3.976 eV
# Parameter: "Peak 3/FG/Constraint" = Fixed: 3.976
# Parameter: "Peak 3/a/Value" = 0
# Parameter: "Peak 3/a/Constraint" = Fixed: 0
# Parameter: "Peak 3/k/Value" = 0 [1/eV]
# Parameter: "Peak 3/k/Constraint" = Fixed: 0
# Parameter: "Peak 4/Transition" = 3d 3/2
# Parameter: "Peak 4/Label" = Oxidized
# Parameter: "Peak 4/C/Value" = nan eV
# Parameter: "Peak 4/C/Constraint" = Dependent: C3 - 4.74
# Parameter: "Peak 4/A/Value" = nan counts eV
# Parameter: "Peak 4/A/Constraint" = Dependent: A3*2/3
# Parameter: "Peak 4/FL/Value" = nan eV
# Parameter: "Peak 4/FG/Value" = 0 eV
# Parameter: "Peak 4/FG/Constraint" = Dependent: FG3
# Parameter: "Peak 4/a/Value" = 0
# Parameter: "Peak 4/a/Constraint" = Fixed: 0
# Parameter: "Peak 4/k/Value" = 0.099000000000000005 [1/eV]
# Parameter: "Peak 4/k/Constraint" = Fixed: 0.099
#
# Result:
# Number of Results:            7
# Parameter: "Baseline/BL_I/Value" = 870 counts +- 0
# Parameter: "Baseline/BL_I/Constraint" = Fixed: 870
# Parameter: "Peak 1/Transition" = 3d 5/2
# Parameter: "Peak 1/Label" = Metallic
# Parameter: "Peak 1/C/Value" = 947.61182929790573 eV +- 0.18769887272699337
# Parameter: "Peak 1/C/Constraint" = Restricted: 932.64 .. 954.64
# Parameter: "Peak 1/Relative Area/Value" = 25.621596487174145 %
# Parameter: "Peak 1/A/Value" = 1166.2743668410765 counts eV +- 220.89957069323822
# Parameter: "Peak 1/FL/Value" = 3.7068648910997712 eV +- 0.42018587523880896
# Parameter: "Peak 1/FG/Value" = 1.4890596301696543e-06 eV +- 0.93714718001635122
# Parameter: "Peak 1/F/Value" = 3.7068662451330399 eV
# Parameter: "Peak 1/a/Value" = 1.9864181778940731e-05 +- 0.00083019081408409676
# Parameter: "Peak 1/k/Value" = 0.055 [1/eV] +- 0
# Parameter: "Peak 1/k/Constraint" = Fixed: 0.055
# Parameter: "Peak 2/Transition" = 3d 3/2
# Parameter: "Peak 2/Label" = Metallic
# Parameter: "Peak 2/C/Value" = 942.87182929790572 eV
# Parameter: "Peak 2/C/Constraint" = Dependent: C1 - 4.74
# Parameter: "Peak 2/Relative Area/Value" = 17.081064324782762 %
# Parameter: "Peak 2/A/Value" = 777.51624456071761 counts eV +- 147.26638046215882
# Parameter: "Peak 2/A/Constraint" = Dependent: A1*2/3
# Parameter: "Peak 2/FL/Value" = 3.7845274364987485 eV +- 0.40188668348139173
# Parameter: "Peak 2/FG/Value" = 1.4890596301696543e-06 eV +- 0.93714718001635122
# Parameter: "Peak 2/FG/Constraint" = Dependent: FG1
# Parameter: "Peak 2/F/Value" = 3.7845288189003483 eV
# Parameter: "Peak 2/F/Constraint" = Dependent: FG: FG1
# Parameter: "Peak 2/a/Value" = 0 +- 0
# Parameter: "Peak 2/k/Value" = 0.043999999999999997 [1/eV] +- 0
# Parameter: "Peak 2/k/Constraint" = Fixed: 0.044
# Parameter: "Peak 3/Transition" = 3d 5/2
# Parameter: "Peak 3/Label" = Oxidized
# Parameter: "Peak 3/C/Value" = 945.72299999999996 eV +- 0
# Parameter: "Peak 3/C/Constraint" = Fixed: 945.723
# Parameter: "Peak 3/Relative Area/Value" = 34.378403512825848 %
# Parameter: "Peak 3/A/Value" = 1564.877146121589 counts eV +- 261.98438769952378
# Parameter: "Peak 3/FL/Value" = 2.2562657588652089 eV +- 0.49707936970600713
# Parameter: "Peak 3/FG/Value" = 3.976 eV +- 0
# Parameter: "Peak 3/FG/Constraint" = Fixed: 3.976
# Parameter: "Peak 3/F/Value" = 5.3185246268285074 eV
# Parameter: "Peak 3/a/Value" = 0 +- 0
# Parameter: "Peak 3/a/Constraint" = Fixed: 0
# Parameter: "Peak 3/k/Value" = 0 [1/eV] +- 0
# Parameter: "Peak 3/k/Constraint" = Fixed: 0
# Parameter: "Peak 4/Transition" = 3d 3/2
# Parameter: "Peak 4/Label" = Oxidized
# Parameter: "Peak 4/C/Value" = 940.98299999999995 eV
# Parameter: "Peak 4/C/Constraint" = Dependent: C3 - 4.74
# Parameter: "Peak 4/Relative Area/Value" = 22.918935675217238 %
# Parameter: "Peak 4/A/Value" = 1043.2514307477261 counts eV +- 174.65625846634919
# Parameter: "Peak 4/A/Constraint" = Dependent: A3*2/3
# Parameter: "Peak 4/FL/Value" = 3.2555423296059041 eV +- 0.78275732976721812
# Parameter: "Peak 4/FG/Value" = 3.976 eV +- 0
# Parameter: "Peak 4/FG/Constraint" = Dependent: FG3
# Parameter: "Peak 4/F/Value" = 5.9953155960796254 eV
# Parameter: "Peak 4/F/Constraint" = Dependent: FG: FG3
# Parameter: "Peak 4/a/Value" = 0 +- 0
# Parameter: "Peak 4/a/Constraint" = Fixed: 0
# Parameter: "Peak 4/k/Value" = 0.099000000000000005 [1/eV] +- 0
# Parameter: "Peak 4/k/Constraint" = Fixed: 0.099
# Parameter: "Fit Result/ChiSquare" = 157.71856606535979
# Parameter: "Fit Result/Reduced ChiSquare" = 0.75104079078742758
# Parameter: "Fit Result/Abbe Factor" = 0.68913316345434539
# Parameter: "Fit Result/Q-Probability" = 0.9971698163388335
# Parameter: "Termination State" = ConvergedInParameter
#
# Result Name:                  Background
# Number of Curves:             1
#
# Curve:                        0
# Values/Curve:                 120
#
321  209.91531
320.81513  209.86897
320.63025  209.8205
320.44538  209.76973
320.2605  209.7165
320.07563  209.66059
319.89076  209.6018
319.70588  209.53988
319.52101  209.47456
319.33613  209.40552
319.15126  209.33244
318.96639  209.25493
318.78151  209.17258
318.59664  209.08491
318.41176  208.99141
318.22689  208.89149
318.04202  208.78451
317.85714  208.66978
317.67227  208.54651
317.48739  208.41387
317.30252  208.27094
317.11765  208.11675
316.93277  207.95027
316.7479  207.77039
316.56303  207.57597
316.37815  207.36585
316.19328  207.13884
316.0084  206.89376
315.82353  206.62946
315.63866  206.34487
315.45378  206.03898
315.26891  205.71092
315.08403  205.35996
314.89916  204.98556
314.71429  204.58738
314.52941  204.16531
314.34454  203.7195
314.15966  203.25035
313.97479  202.7585
313.78992  202.24484
313.60504  201.7105
313.42017  201.1568
313.23529  200.58519
313.05042  199.99726
312.86555  199.39467
312.68067  198.77908
312.4958  198.15218
312.31092  197.51564
312.12605  196.87114
311.94118  196.22048
311.7563  195.56563
311.57143  194.90891
311.38655  194.2531
311.20168  193.60158
311.01681  192.95826
310.83193  192.32741
310.64706  191.71332
310.46218  191.11986
310.27731  190.5501
310.09244  190.00601
309.90756  189.48837
309.72269  188.99682
309.53782  188.53006
309.35294  188.08602
309.16807  187.66209
308.98319  187.25526
308.79832  186.86226
308.61345  186.47966
308.42857  186.10388
308.2437  185.73127
308.05882  185.35811
307.87395  184.98068
307.68908  184.59531
307.5042  184.19847
307.31933  183.78706
307.13445  183.35863
306.94958  182.91192
306.76471  182.4474
306.57983  181.96786
306.39496  181.47869
306.21008  180.98718
306.02521  180.49963
305.84034  180.02126
305.65546  179.55916
305.47059  179.11918
305.28571  178.70551
305.10084  178.32052
304.91597  177.96498
304.73109  177.63843
304.54622  177.33951
304.36134  177.06634
304.17647  176.81682
303.9916  176.58876
303.80672  176.38005
303.62185  176.18869
303.43697  176.01287
303.2521  175.85095
303.06723  175.70147
302.88235  175.56312
302.69748  175.43476
302.51261  175.31539
302.32773  175.20409
302.14286  175.1001
301.95798  175.00272
301.77311  174.91134
301.58824  174.82542
301.40336  174.74447
301.21849  174.66807
301.03361  174.59583
300.84874  174.52743
300.66387  174.46256
300.47899  174.40093
300.29412  174.34232
300.10924  174.28649
299.92437  174.23324
299.7395  174.1824
299.55462  174.1338
299.36975  174.08729
299.18487  174.04273
299  174

# Result Name:                  Combined
# Number of Curves:             1
#
# Curve:                        0
# Values/Curve:                 120
#
321  213.77419
320.81513  213.88092
320.63025  213.99566
320.44538  214.11922
320.2605  214.25252
320.07563  214.39659
319.89076  214.55259
319.70588  214.72183
319.52101  214.90578
319.33613  215.10609
319.15126  215.32459
318.96639  215.56333
318.78151  215.8246
318.59664  216.11088
318.41176  216.42492
318.22689  216.76967
318.04202  217.1483
317.85714  217.56419
317.67227  218.02082
317.48739  218.52179
317.30252  219.07069
317.11765  219.67104
316.93277  220.32615
316.7479  221.03901
316.56303  221.81212
316.37815  222.64737
316.19328  223.54586
316.0084  224.50776
315.82353  225.53221
315.63866  226.6172
315.45378  227.75953
315.26891  228.95484
315.08403  230.1977
314.89916  231.48178
314.71429  232.80012
314.52941  234.14551
314.34454  235.51092
314.15966  236.89005
313.97479  238.2779
313.78992  239.67141
313.60504  241.07001
313.42017  242.47608
313.23529  243.8953
313.05042  245.33656
312.86555  246.81153
312.68067  248.33351
312.4958  249.91544
312.31092  251.56685
312.12605  253.28973
311.94118  255.07341
311.7563  256.88936
311.57143  258.68748
311.38655  260.39609
311.20168  261.92851
311.01681  263.1972
310.83193  264.13346
310.64706  264.7065
310.46218  264.93397
310.27731  264.87875
310.09244  264.63329
309.90756  264.29822
309.72269  263.96326
309.53782  263.69525
309.35294  263.53433
309.16807  263.49612
308.98319  263.57728
308.79832  263.76205
308.61345  264.02846
308.42857  264.35332
308.2437  264.71581
308.05882  265.09933
307.87395  265.4915
307.68908  265.88192
307.5042  266.25711
307.31933  266.59221
307.13445  266.83917
306.94958  266.91257
306.76471  266.67699
306.57983  265.94581
306.39496  264.51042
306.21008  262.23339
306.02521  259.2598
305.84034  255.7413
305.65546  251.53902
305.47059  246.81121
305.28571  241.75668
305.10084  236.5779
304.91597  231.45216
304.73109  226.51612
304.54622  221.8628
304.36134  217.54646
304.17647  213.59089
303.9916  209.99804
303.80672  206.75544
303.62185  203.84194
303.43697  201.2318
303.2521  198.89746
303.06723  196.81139
302.88235  194.94715
302.69748  193.28003
302.51261  191.78742
302.32773  190.44886
302.14286  189.24605
301.95798  188.16278
301.77311  187.18472
301.58824  186.29933
301.40336  185.49562
301.21849  184.76402
301.03361  184.09619
300.84874  183.48489
300.66387  182.92381
300.47899  182.40747
300.29412  181.93109
300.10924  181.49049
299.92437  181.08205
299.7395  180.70256
299.55462  180.34924
299.36975  180.01961
299.18487  179.71149
299  179.42297

# Result Name:                  Peak 1
# Number of Curves:             1
#
# Curve:                        0
# Values/Curve:                 120
#
321  210.51811
320.81513  210.4867
320.63025  210.45372
320.44538  210.41903
320.2605  210.38249
320.07563  210.34393
319.89076  210.30317
319.70588  210.25999
319.52101  210.21416
319.33613  210.16543
319.15126  210.11348
318.96639  210.05801
318.78151  209.99862
318.59664  209.93491
318.41176  209.86642
318.22689  209.79262
318.04202  209.71294
317.85714  209.62675
317.67227  209.53335
317.48739  209.43199
317.30252  209.32184
317.11765  209.20203
316.93277  209.07161
316.7479  208.92961
316.56303  208.775
316.37815  208.60675
316.19328  208.42382
316.0084  208.22519
315.82353  208.00987
315.63866  207.77698
315.45378  207.5257
315.26891  207.2554
315.08403  206.96559
314.89916  206.65598
314.71429  206.32653
314.52941  205.97746
314.34454  205.60926
314.15966  205.22272
313.97479  204.81892
313.78992  204.39922
313.60504  203.96529
313.42017  203.51903
313.23529  203.06255
313.05042  202.59818
312.86555  202.12837
312.68067  201.65574
312.4958  201.18299
312.31092  200.71295
312.12605  200.24862
311.94118  199.79327
311.7563  199.35056
311.57143  198.92469
311.38655  198.52065
311.20168  198.14428
311.01681  197.8023
310.83193  197.50224
310.64706  197.25211
310.46218  197.06005
310.27731  196.93406
310.09244  196.88179
309.90756  196.91054
309.72269  197.02753
309.53782  197.24014
309.35294  197.55629
309.16807  197.98481
308.98319  198.53569
308.79832  199.22032
308.61345  200.05148
308.42857  201.04315
308.2437  202.20996
308.05882  203.5659
307.87395  205.12228
307.68908  206.88407
307.5042  208.84428
307.31933  210.9756
307.13445  213.21913
306.94958  215.47102
306.76471  217.57115
306.57983  219.30329
306.39496  220.42588
306.21008  220.7668
306.02521  220.43621
305.84034  219.55193
305.65546  217.94366
305.47059  215.74142
305.28571  213.11979
305.10084  210.26139
304.91597  207.32817
304.73109  204.44598
304.54622  201.70132
304.36134  199.14576
304.17647  196.80383
303.9916  194.68104
303.80672  192.77076
303.62185  191.05937
303.43697  189.52988
303.2521  188.16416
303.06723  186.94442
302.88235  185.85395
302.69748  184.87751
302.51261  184.00143
302.32773  183.21362
302.14286  182.50348
301.95798  181.86171
301.77311  181.28024
301.58824  180.75204
301.40336  180.27099
301.21849  179.83178
301.03361  179.42977
300.84874  179.06091
300.66387  178.72169
300.47899  178.40901
300.29412  178.12016
300.10924  177.85277
299.92437  177.60472
299.7395  177.37418
299.55462  177.15949
299.36975  176.9592
299.18487  176.77203
299  176.59682

# Result Name:                  Peak 2
# Number of Curves:             1
#
# Curve:                        0
# Values/Curve:                 120
#
321  210.7804
320.81513  210.76508
320.63025  210.74932
320.44538  210.73306
320.2605  210.71627
320.07563  210.69889
319.89076  210.68085
319.70588  210.6621
319.52101  210.64254
319.33613  210.62208
319.15126  210.60062
318.96639  210.57803
318.78151  210.55417
318.59664  210.52888
318.41176  210.50199
318.22689  210.47329
318.04202  210.44259
317.85714  210.40963
317.67227  210.37419
317.48739  210.33601
317.30252  210.29486
317.11765  210.25049
316.93277  210.20272
316.7479  210.1514
316.56303  210.09646
316.37815  210.03794
316.19328  209.97606
316.0084  209.9112
315.82353  209.84402
315.63866  209.77549
315.45378  209.70694
315.26891  209.64021
315.08403  209.57765
314.89916  209.52227
314.71429  209.4778
314.52941  209.44881
314.34454  209.4408
314.15966  209.46028
313.97479  209.51484
313.78992  209.6132
313.60504  209.76517
313.42017  209.98154
313.23529  210.27384
313.05042  210.65379
312.86555  211.13249
312.68067  211.71905
312.4958  212.41852
312.31092  213.22904
312.12605  214.13793
311.94118  215.11723
311.7563  216.11914
311.57143  217.07318
311.38655  217.88728
311.20168  218.45534
311.01681  218.67251
310.83193  218.45595
310.64706  217.76481
310.46218  216.61151
310.27731  215.05909
310.09244  213.20572
309.90756  211.16322
309.72269  209.03743
309.53782  206.91554
309.35294  204.86099
309.16807  202.91429
308.98319  201.0969
308.79832  199.41607
308.61345  197.86942
308.42857  196.44844
308.2437  195.14127
308.05882  193.93441
307.87395  192.81394
307.68908  191.76629
307.5042  190.77868
307.31933  189.83957
307.13445  188.93898
306.94958  188.06896
306.76471  187.22412
306.57983  186.4021
306.39496  185.60382
306.21008  184.83266
306.02521  184.09153
305.84034  183.38269
305.65546  182.71064
305.47059  182.079
305.28571  181.48997
305.10084  180.9442
304.91597  180.44096
304.73109  179.97844
304.54622  179.55413
304.36134  179.1651
304.17647  178.80834
303.9916  178.48086
303.80672  178.1798
303.62185  177.90255
303.43697  177.64672
303.2521  177.41014
303.06723  177.19091
302.88235  176.9873
302.69748  176.7978
302.51261  176.62107
302.32773  176.45592
302.14286  176.30128
301.95798  176.15622
301.77311  176.0199
301.58824  175.89157
301.40336  175.77058
301.21849  175.65632
301.03361  175.54826
300.84874  175.44592
300.66387  175.34887
300.47899  175.25672
300.29412  175.1691
300.10924  175.08571
299.92437  175.00624
299.7395  174.93044
299.55462  174.85805
299.36975  174.78886
299.18487  174.72267
299  174.65928

# Result Name:                  Peak 3
# Number of Curves:             1
#
# Curve:                        0
# Values/Curve:                 120
#
321  210.60202
320.81513  210.57647
320.63025  210.54977
320.44538  210.52182
320.2605  210.4925
320.07563  210.46171
319.89076  210.42929
319.70588  210.39509
319.52101  210.35893
319.33613  210.32063
319.15126  210.27995
318.96639  210.23664
318.78151  210.19043
318.59664  210.14099
318.41176  210.08798
318.22689  210.031
318.04202  209.96963
317.85714  209.90339
317.67227  209.83177
317.48739  209.75423
317.30252  209.67017
317.11765  209.579
316.93277  209.48009
316.7479  209.37282
316.56303  209.2566
316.37815  209.13087
316.19328  208.99515
316.0084  208.8491
315.82353  208.69252
315.63866  208.52541
315.45378  208.34806
315.26891  208.16107
315.08403  207.96546
314.89916  207.76269
314.71429  207.55478
314.52941  207.34437
314.34454  207.13478
314.15966  206.93007
313.97479  206.73512
313.78992  206.55567
313.60504  206.3983
313.42017  206.27049
313.23529  206.18056
313.05042  206.1376
312.86555  206.15136
312.68067  206.23213
312.4958  206.39051
312.31092  206.63719
312.12605  206.98269
311.94118  207.437
311.7563  208.00928
311.57143  208.70747
311.38655  209.53789
311.20168  210.50471
311.01681  211.60934
310.83193  212.84971
310.64706  214.21943
310.46218  215.707
310.27731  217.29524
310.09244  218.96096
309.90756  220.67516
309.72269  222.40352
309.53782  224.10737
309.35294  225.74484
309.16807  227.27229
308.98319  228.64587
308.79832  229.82311
308.61345  230.76451
308.42857  231.43508
308.2437  231.80568
308.05882  231.85416
307.87395  231.56619
307.68908  230.93586
307.5042  229.96581
307.31933  228.66726
307.13445  227.05961
306.94958  225.17001
306.76471  223.03266
306.57983  220.68806
306.39496  218.18178
306.21008  215.5622
306.02521  212.87625
305.84034  210.16795
305.65546  207.48028
305.47059  204.85119
305.28571  202.31253
305.10084  199.88957
304.91597  197.60104
304.73109  195.45962
304.54622  193.47257
304.36134  191.6425
304.17647  189.96818
303.9916  188.4453
303.80672  187.06715
303.62185  185.82535
303.43697  184.71033
303.2521  183.71192
303.06723  182.81969
302.88235  182.02334
302.69748  181.31292
302.51261  180.67903
302.32773  180.11293
302.14286  179.60664
301.95798  179.15293
301.77311  178.74536
301.58824  178.37821
301.40336  178.04645
301.21849  177.7457
301.03361  177.47214
300.84874  177.22246
300.66387  176.99381
300.47899  176.78372
300.29412  176.59007
300.10924  176.41102
299.92437  176.24499
299.7395  176.09061
299.55462  175.94668
299.36975  175.81219
299.18487  175.68621
299  175.56796

# Result Name:                  Peak 4
# Number of Curves:             1
#
# Curve:                        0
# Values/Curve:                 120
#
321  211.6196
320.81513  211.65958
320.63025  211.70434
320.44538  211.75451
320.2605  211.81075
320.07563  211.87385
319.89076  211.9447
319.70588  212.02431
319.52101  212.11382
319.33613  212.21452
319.15126  212.32785
318.96639  212.45546
318.78151  212.59913
318.59664  212.76084
318.41176  212.94277
318.22689  213.14723
318.04202  213.37669
317.85714  213.63375
317.67227  213.92103
317.48739  214.24116
317.30252  214.59664
317.11765  214.98979
316.93277  215.42254
316.7479  215.89635
316.56303  216.41199
316.37815  216.96936
316.19328  217.56733
316.0084  218.20354
315.82353  218.87419
315.63866  219.57393
315.45378  220.29576
315.26891  221.03091
315.08403  221.76888
314.89916  222.49752
314.71429  223.20315
314.52941  223.87081
314.34454  224.4846
314.15966  225.02803
313.97479  225.48451
313.78992  225.83784
313.60504  226.07275
313.42017  226.1754
313.23529  226.13391
313.05042  225.93877
312.86555  225.5833
312.68067  225.06383
312.4958  224.37995
312.31092  223.53458
312.12605  222.53392
311.94118  221.38736
311.7563  220.10729
311.57143  218.70885
311.38655  217.20956
311.20168  215.62893
311.01681  213.98783
310.83193  212.30779
310.64706  210.61012
310.46218  208.915
310.27731  207.24067
310.09244  205.60285
309.90756  204.0144
309.72269  202.48522
309.53782  201.02237
309.35294  199.63026
309.16807  198.31099
308.98319  197.06459
308.79832  195.88933
308.61345  194.78203
308.42857  193.73828
308.2437  192.75271
308.05882  191.8192
307.87395  190.93113
307.68908  190.08162
307.5042  189.26375
307.31933  188.47095
307.13445  187.69734
306.94958  186.93835
306.76471  186.19127
306.57983  185.45594
306.39496  184.73501
306.21008  184.03325
306.02521  183.3547
305.84034  182.7025
305.65546  182.08191
305.47059  181.49713
305.28571  180.9509
305.10084  180.44429
304.91597  179.97694
304.73109  179.54736
304.54622  179.1533
304.36134  178.79212
304.17647  178.46099
303.9916  178.15713
303.80672  177.87786
303.62185  177.62073
303.43697  177.38349
303.2521  177.16411
303.06723  176.96078
302.88235  176.77192
302.69748  176.59609
302.51261  176.43204
302.32773  176.27867
302.14286  176.13497
301.95798  176.00009
301.77311  175.87325
301.58824  175.75375
301.40336  175.64099
301.21849  175.53441
301.03361  175.43353
300.84874  175.33789
300.66387  175.24711
300.47899  175.16082
300.29412  175.0787
300.10924  175.00046
299.92437  174.92582
299.7395  174.85454
299.55462  174.78641
299.36975  174.72121
299.18487  174.65878
299  174.59892

# Result Name:                  Residuum
# Number of Curves:             1
#
# Curve:                        0
# Values/Curve:                 221
#
321  -13.131949
320.9  -1.8012164
320.8  -15.001363
320.7  -12.170243
320.6  -6.6832867
320.5  0.073116037
320.4  -2.5293193
320.3  1.5353633
320.2  -4.8803363
320.1  -2.3550608
320  -1.3388537
319.9  -7.4671064
319.8  -14.359823
319.7  3.2979186
319.6  3.4978506
319.5  12.587098
319.4  -3.7045549
319.3  7.8653569
319.2  3.8758126
319.1  4.8484367
319  -2.2077475
318.9  5.1302777
318.8  3.2568786
318.7  -1.320509
318.6  -3.1612848
318.5  -2.5829053
318.4  -6.4204119
318.3  3.2744797
318.2  4.0317797
318.1  -13.310281
318  4.5120882
317.9  1.086261
317.8  3.7829071
317.7  -3.1146344
317.6  0.91006644
317.5  3.8751452
317.4  0.14993306
317.3  -4.778077
317.2  3.3786318
317.1  -5.778691
317  2.1713127
316.9  0.97250133
316.8  -4.348256
316.7  5.0935008
316.6  0.31393731
316.5  -5.1740653
316.4  6.2378793
316.3  3.4609324
316.2  5.26309
316.1  2.4748389
316  -3.211079
315.9  -10.16115
315.8  -2.9758909
315.7  -3.2808047
315.6  -0.46977157
315.5  3.032656
315.4  6.5207212
315.3  -2.3392661
315.2  -0.33201801
315.1  4.1388935
315  -1.9423217
314.9  5.7936672
314.8  5.8794507
314.7  4.6250022
314.6  -0.46127199
314.5  12.902422
314.4  6.7763564
314.3  3.4297827
314.2  5.4003636
314.1  0.12463144
314  -4.2389943
313.9  0.81513348
313.8  1.8135992
313.7  2.5191534
313.6  1.7498721
313.5  1.6847755
313.4  1.0642605
313.3  5.8233203
313.2  0.14128049
313.1  -9.9436966
313  -8.3069543
312.9  1.3702977
312.8  -1.0575088
312.7  1.7128168
312.6  -6.8849923
312.5  1.322369
312.4  -0.24956178
312.3  -4.9822008
312.2  1.6138075
312.1  -2.7364254
312  2.7241674
311.9  4.0019607
311.8  -2.4186562
311.7  -3.155409
311.6  -1.1814172
311.5  4.7487244
311.4  -7.6121567
311.3  4.8173787
311.2  -4.0945861
311.1  -7.8078154
311  -17.073244
310.9  -4.324771
310.8  1.1840255
310.7  -4.4393592
310.6  -2.681109
310.5  5.7618887
310.4  11.137927
310.3  7.2281103
310.2  6.3281625
310.1  0.73857123
310  16.13886
309.9  11.534874
309.8  9.0055733
309.7  0.32804574
309.6  0.39169084
309.5  4.9877603
309.4  -0.40216693
309.3  0.87968896
309.2  -6.8782956
309.1  2.8386106
309  6.9134822
308.9  -7.2924941
308.8  -7.8897629
308.7  0.97433478
308.6  -3.9978735
308.5  -8.50839
308.4  -12.14998
308.3  -8.3819768
308.2  -6.1911689
308.1  -1.5893984
308  -4.4655139
307.9  2.3773709
307.8  9.6926361
307.7  1.9719357
307.6  -2.7622691
307.5  0.57459851
307.4  2.1338616
307.3  3.6403737
307.2  -3.5293919
307.1  4.5667995
307  11.132592
306.9  10.758897
306.8  2.224942
306.7  2.5265354
306.6  7.1242489
306.5  0.99123043
306.4  5.2317223
306.3  -1.9863047
306.2  1.2680114
306.1  -1.7787528
306  -1.8223207
305.9  10.087211
305.8  -5.199943
305.7  -5.6950553
305.6  2.1942745
305.5  6.9631107
305.4  -7.1529101
305.3  -12.384009
305.2  -0.93102724
305.1  -8.0306819
305  -2.9285567
304.9  3.0530463
304.8  -4.5818936
304.7  -8.6563066
304.6  -0.37286669
304.5  -0.36540072
304.4  0.060376909
304.3  -0.00076845406
304.2  2.9920852
304.1  2.3812913
304  -2.2337277
303.9  1.4986299
303.8  5.0608774
303.7  -1.1478464
303.6  1.8911354
303.5  5.5828383
303.4  2.8618364
303.3  6.4819505
303.2  2.3986492
303.1  11.027214
303  4.3528519
302.9  6.5461244
302.8  3.2720902
302.7  -2.2638317
302.6  -0.12131137
302.5  7.0363424
302.4  1.8517913
302.3  -0.97076577
302.2  5.4547898
302.1  -1.0210697
302  5.3185443
301.9  2.9142162
301.8  6.7304114
301.7  -8.8352094
301.6  4.8033568
301.5  0.61277296
301.4  9.976969
301.3  2.6618919
301.2  -11.174138
301.1  -8.124067
301  -5.2250359
300.9  -1.5168567
300.8  0.5597254
300.7  3.5077141
300.6  -3.3014728
300.5  4.7188022
300.4  1.5430843
300.3  4.6201399
300.2  -3.2353121
300.1  -1.0646261
300  -2.9118348
299.9  -5.0622836
299.8  -7.8398128
299.7  -2.9331242
299.6  -2.2402127
299.5  -8.9922361
299.4  -6.7380493
299.3  -2.4402123
299.2  -4.8637928
299.1  7.4676618
299  -9.7913524

# Region:                       Au 4d 10 eV
# Spectrum ID:                  5
# Acquisition Date:             09/19/24 19:04:55 UTC
# Analysis Method:              XPS
# Analyzer:                     PHOIBOS MCD5 Analyzer
# Analyzer Lens:                LargeArea:1.5kV
# Analyzer Slit:                8:7dia.\B:open
# Scan Mode:                    FixedAnalyzerTransmission
# Curves/Scan:                  1
# Values/Curve:                 301
# Dwell Time:                   0.5
# Excitation Energy:            1253.64
# Binding Energy:               360
# Pass Energy:                  10
# Bias Voltage:                 90
# Detector Voltage:             3000
# Eff. Workfunction:            4.543
# Source:                       X-Ray Dummy
# Comment:                      flood gun operated at 0.04 mA 5 eV
#
# Cycle: 0
# Number of Scans: 10
#
# Cycle: 0, Curve: 0
# Acquisition Date:             09/19/24 19:04:55 UTC
#
# ColumnLabels:                 energy counts/s
#
360  229.91761
359.9  243.70784
359.8  235.93372
359.7  220.8764
359.6  230.88494
359.5  234.18127
359.4  232.99489
359.3  233.65816
359.2  225.85989
359.1  227.2698
359  244.5498
358.9  228.10971
358.8  233.7408
358.7  227.07357
358.6  236.91193
358.5  232.77375
358.4  226.5409
358.3  233.08231
358.2  232.30831
358.1  230.33517
358  231.78304
357.9  230.09606
357.8  244.98659
357.7  229.91841
357.6  234.07706
357.5  235.97818
357.4  240.95739
357.3  236.18954
357.2  235.03322
357.1  231.3153
357  234.69015
356.9  245.71896
356.8  233.47497
356.7  240.74436
356.6  235.03644
356.5  239.65795
356.4  241.43519
356.3  228.67651
356.2  240.77098
356.1  234.03408
356  243.14311
355.9  234.19583
355.8  242.51118
355.7  229.02076
355.6  242.71147
355.5  226.53502
355.4  244.29977
355.3  245.00285
355.2  244.71011
355.1  238.69864
355  241.21907
354.9  241.82696
354.8  239.26705
354.7  246.9355
354.6  249.30346
354.5  243.19054
354.4  253.07065
354.3  254.67077
354.2  248.13998
354.1  230.27019
354  237.66807
353.9  235.99477
353.8  239.90953
353.7  245.61689
353.6  251.72236
353.5  253.9168
353.4  251.00241
353.3  250.28889
353.2  251.07255
353.1  256.28023
353  241.17314
352.9  245.77832
352.8  249.98874
352.7  246.02757
352.6  248.8068
352.5  248.02704
352.4  240.22149
352.3  250.4518
352.2  243.91587
352.1  252.16435
352  250.98185
351.9  255.19361
351.8  247.53623
351.7  254.25112
351.6  234.31665
351.5  249.26772
351.4  254.50293
351.3  242.10044
351.2  249.69847
351.1  254.18717
351  239.80673
350.9  240.25465
350.8  238.63507
350.7  243.99947
350.6  244.41949
350.5  249.92685
350.4  236.4502
350.3  246.39627
350.2  247.95757
350.1  237.65982
350  242.00823
349.9  240.19974
349.8  233.75247
349.7  233.9447
349.6  247.15221
349.5  238.76565
349.4  237.70314
349.3  228.70904
349.2  236.84998
349.1  246.27443
349  235.14109
348.9  227.27657
348.8  233.46707
348.7  243.53823
348.6  233.10389
348.5  238.96019
348.4  237.58552
348.3  236.29138
348.2  230.53812
348.1  240.61962
348  236.66581
347.9  241.37188
347.8  240.97653
347.7  245.06668
347.6  243.72262
347.5  246.922
347.4  229.61176
347.3  238.24225
347.2  245.98714
347.1  224.75893
347  237.11615
346.9  252.3303
346.8  231.82354
346.7  230.84764
346.6  249.72929
346.5  236.75588
346.4  235.53121
346.3  238.95871
346.2  228.64148
346.1  231.06
346  235.08765
345.9  236.66865
345.8  238.34875
345.7  235.5235
345.6  234.35641
345.5  233.56817
345.4  225.02683
345.3  228.63868
345.2  222.57882
345.1  229.28993
345  221.84259
344.9  231.59615
344.8  226.47416
344.7  221.52516
344.6  236.57545
344.5  228.38682
344.4  226.62442
344.3  227.71991
344.2  235.3147
344.1  233.64593
344  231.35888
343.9  243.3156
343.8  238.67713
343.7  235.29172
343.6  219.9619
343.5  236.55338
343.4  237.97666
343.3  223.4196
343.2  234.01261
343.1  238.19071
343  232.1543
342.9  243.3478
342.8  230.66407
342.7  233.46688
342.6  231.60347
342.5  233.02961
342.4  221.96288
342.3  239.12972
342.2  241.79649
342.1  236.55188
342  243.21943
341.9  234.4633
341.8  219.92476
341.7  223.23317
341.6  237.5369
341.5  232.89696
341.4  234.97962
341.3  224.61
341.2  230.37819
341.1  234.96275
341  219.72467
340.9  226.56751
340.8  221.00802
340.7  225.97023
340.6  225.39731
340.5  219.71259
340.4  232.51432
340.3  214.7215
340.2  231.6266
340.1  219.81317
340  230.04592
339.9  238.09106
339.8  226.52962
339.7  232.49736
339.6  237.7477
339.5  237.40536
339.4  234.43779
339.3  227.27711
339.2  236.2272
339.1  232.83887
339  242.17389
338.9  243.77222
338.8  236.8048
338.7  244.83809
338.6  241.41404
338.5  235.81471
338.4  231.4666
338.3  248.06762
338.2  237.00767
338.1  244.27102
338  242.71368
337.9  245.32457
337.8  237.7482
337.7  239.71187
337.6  244.1446
337.5  237.70208
337.4  246.26195
337.3  254.54709
337.2  240.44656
337.1  239.37139
337  237.92336
336.9  240.93039
336.8  249.33809
336.7  256.98088
336.6  259.42512
336.5  248.16865
336.4  241.13217
336.3  246.41182
336.2  251.99551
336.1  254.56026
336  250.18851
335.9  264.91893
335.8  263.96574
335.7  265.89778
335.6  261.78513
335.5  263.24515
335.4  255.16059
335.3  267.4306
335.2  273.82332
335.1  258.96704
335  254.58307
334.9  267.21961
334.8  257.2943
334.7  265.61648
334.6  252.16272
334.5  254.70473
334.4  258.44152
334.3  248.52182
334.2  246.91945
334.1  248.5432
334  261.0423
333.9  257.14671
333.8  253.12025
333.7  249.39233
333.6  250.15525
333.5  237.31137
333.4  264.34888
333.3  255.50279
333.2  248.31051
333.1  250.62137
333  254.32539
332.9  251.58075
332.8  242.44228
332.7  246.68842
332.6  246.03446
332.5  241.91917
332.4  242.72553
332.3  242.88828
332.2  247.006
332.1  239.69436
332  234.95548
331.9  239.0763
331.8  237.85217
331.7  236.89631
331.6  231.1932
331.5  228.46788
331.4  231.67041
331.3  231.69158
331.2  238.20276
331.1  225.05375
331  222.41105
330.9  228.7042
330.8  241.47514
330.7  233.71224
330.6  230.34947
330.5  215.6372
330.4  228.65454
330.3  228.35972
330.2  238.79016
330.1  229.23532
330  226.53219

