# Created by:        SpecsLab Prodigy, Version 4.79.1-r98952 
#
# XY-Serializer Export Settings:
#   Comment Prefix:           #
#   Output Meta Data:         yes
#   Energy Axis:              Binding Energy
#   Count Rate:               Counts per Second
#   Separate Scan Data:       no
#   Separate Channel Data:    no
#   External Channel Data:    yes
#   Transmission Function:    no
#   Error Bar:                no
#   Operation Results:        yes
#   Time Zone Format:         Local Time
#
# Group:                        no flood gun
#
# Region:                       Au 4f
# Spectrum ID:                  1
# Acquisition Date:             02/05/25 15:21:04 UTC-5
# Analysis Method:              XPS
# Analyzer:                     PHOIBOS MCD5 Analyzer
# Analyzer Lens:                LargeArea:1.5kV
# Analyzer Slit:                8:7dia.\B:open
# Scan Mode:                    FixedAnalyzerTransmission
# Curves/Scan:                  1
# Values/Curve:                 401
# Dwell Time:                   0.1
# Excitation Energy:            1253.64
# Binding Energy:               95
# Pass Energy:                  10
# Bias Voltage:                 90
# Detector Voltage:             3000
# Eff. Workfunction:            4.543
# Source:                       X-Ray Dummy
# Comment:                      
#
# Cycle: 0
# Number of Scans: 1
#
# Cycle: 0, Curve: 0
# Acquisition Date:             02/05/25 15:21:04 UTC-5
#
# ColumnLabels:                 energy counts/s
#
95  150.90778
94.95  95.97742
94.9  114.5344
94.85  71.88034
94.8  115.41442
94.75  113.46598
94.7  159.61304
94.65  123.01022
94.6  98.76698
94.55  207.5016
94.5  153.33882
94.45  104.52778
94.4  98.4904
94.35  73.9092
94.3  138.65522
94.25  121.3227
94.2  174.3241
94.15  113.61638
94.1  99.62622
94.05  50.327
94  90.5098
93.95  111.34938
93.9  161.541
93.85  166.9846
93.8  203.7886
93.75  167.61896
93.7  112.04696
93.65  255.3711
93.6  143.6458
93.55  115.42238
93.5  169.34078
93.45  150.6466
93.4  154.29742
93.35  130.80696
93.3  140.6954
93.25  132.40524
93.2  192.25742
93.15  86.7418
93.1  174.35158
93.05  150.14502
93  81.24998
92.95  65.8854
92.9  96.01262
92.85  143.79556
92.8  121.01444
92.75  118.19758
92.7  154.96298
92.65  163.33824
92.6  175.837
92.55  117.63954
92.5  143.92642
92.45  146.69598
92.4  159.80386
92.35  154.23538
92.3  95.83762
92.25  134.48198
92.2  164.419
92.15  154.77682
92.1  155.1216
92.05  124.9226
92  143.2778
91.95  169.9252
91.9  189.44718
91.85  178.69078
91.8  180.35042
91.75  114.94882
91.7  98.37376
91.65  164.03044
91.6  176.16876
91.55  181.21622
91.5  155.12598
91.45  203.57622
91.4  127.75782
91.35  130.81518
91.3  162.10982
91.25  99.8808
91.2  168.60914
91.15  149.33826
91.1  168.75958
91.05  285.40278
91  261.96058
90.95  264.62906
90.9  202.86418
90.85  237.7772
90.8  229.58682
90.75  238.62512
90.7  272.89606
90.65  263.2194
90.6  281.78138
90.55  309.33562
90.5  199.56538
90.45  255.42552
90.4  289.24158
90.35  292.54766
90.3  320.51182
90.25  377.08382
90.2  339.86642
90.15  321.50614
90.1  410.3836
90.05  375.67306
90  391.7508
89.95  296.00114
89.9  304.05464
89.85  305.20596
89.8  327.80266
89.75  247.32096
89.7  304.29064
89.65  257.89178
89.6  264.2012
89.55  205.66898
89.5  304.64644
89.45  356.84422
89.4  208.44792
89.35  256.50284
89.3  303.63562
89.25  214.4416
89.2  202.35958
89.15  173.57322
89.1  187.435
89.05  222.0372
89  197.56178
88.95  177.75622
88.9  210.3378
88.85  140.94402
88.8  141.66358
88.75  114.7144
88.7  107.79138
88.65  214.874
88.6  170.49362
88.55  209.02336
88.5  198.34104
88.45  103.6532
88.4  136.87154
88.35  164.20968
88.3  194.64856
88.25  211.84864
88.2  190.66438
88.15  162.79578
88.1  161.80444
88.05  114.4704
88  155.47278
87.95  123.08658
87.9  166.86404
87.85  133.81098
87.8  177.22662
87.75  158.73638
87.7  189.0036
87.65  172.903
87.6  176.64278
87.55  128.36524
87.5  158.48676
87.45  186.8106
87.4  242.3616
87.35  263.34662
87.3  194.2586
87.25  272.33476
87.2  309.03442
87.15  269.04982
87.1  335.24474
87.05  334.26062
87  265.11266
86.95  228.1714
86.9  333.64614
86.85  289.1854
86.8  315.50898
86.75  321.57066
86.7  383.028
86.65  385.80716
86.6  394.38738
86.55  455.22086
86.5  358.37758
86.45  362.05274
86.4  371.06542
86.35  302.76264
86.3  351.56998
86.25  307.85238
86.2  406.38042
86.15  416.79736
86.1  315.31878
86.05  286.22392
86  371.0949
85.95  295.69404
85.9  290.42304
85.85  289.05876
85.8  182.1452
85.75  257.7706
85.7  238.86666
85.65  165.24018
85.6  140.38362
85.55  134.4326
85.5  158.87038
85.45  190.10562
85.4  202.10038
85.35  202.29702
85.3  187.97754
85.25  152.95242
85.2  160.50024
85.15  94.59458
85.1  148.53718
85.05  173.69042
85  158.83372
84.95  138.24126
84.9  123.51842
84.85  129.91382
84.8  112.5976
84.75  175.08696
84.7  196.27324
84.65  95.3836
84.6  101.3114
84.55  90.75118
84.5  123.8544
84.45  115.39442
84.4  87.17538
84.35  124.3064
84.3  72.3354
84.25  106.4546
84.2  91.98538
84.15  101.53582
84.1  116.45098
84.05  119.94422
84  94.62182
83.95  103.2058
83.9  110.86098
83.85  70.61342
83.8  154.50038
83.75  135.97002
83.7  125.43758
83.65  113.2804
83.6  117.41862
83.55  97.7814
83.5  124.77578
83.45  160.10562
83.4  94.23398
83.35  48.91562
83.3  111.6404
83.25  84.60776
83.2  80.73164
83.15  53.5984
83.1  99.63418
83.05  197.41598
83  143.9838
82.95  122.83564
82.9  130.8568
82.85  99.17536
82.8  111.73242
82.75  70.543
82.7  112.7726
82.65  102.81738
82.6  100.05884
82.55  114.08198
82.5  110.03578
82.45  142.543
82.4  93.81022
82.35  106.9114
82.3  67.9822
82.25  138.58862
82.2  147.36718
82.15  125.12698
82.1  84.82422
82.05  124.17602
82  96.2124
81.95  103.2778
81.9  108.87038
81.85  105.71242
81.8  97.94176
81.75  129.68764
81.7  69.41978
81.65  146.30436
81.6  125.05486
81.55  162.17558
81.5  99.36302
81.45  121.27458
81.4  98.4326
81.35  117.0176
81.3  133.31198
81.25  105.20902
81.2  91.97262
81.15  58.59658
81.1  114.22178
81.05  103.8434
81  131.83122
80.95  124.84418
80.9  81.27464
80.85  145.16678
80.8  117.39938
80.75  138.97704
80.7  141.03656
80.65  101.4986
80.6  150.23542
80.55  126.1898
80.5  123.28242
80.45  107.46236
80.4  121.08542
80.35  101.35358
80.3  109.33024
80.25  137.4654
80.2  133.39658
80.15  157.8654
80.1  115.98496
80.05  131.22578
80  115.15888
79.95  94.3732
79.9  104.0488
79.85  97.01558
79.8  159.1968
79.75  105.60162
79.7  134.6454
79.65  143.1238
79.6  80.36696
79.55  142.64222
79.5  109.25942
79.45  111.5633
79.4  122.88988
79.35  107.5716
79.3  84.08142
79.25  147.27878
79.2  113.49918
79.15  84.56242
79.1  56.4258
79.05  99.7928
79  74.8342
78.95  112.63658
78.9  120.68744
78.85  110.80418
78.8  101.77922
78.75  127.70038
78.7  91.024
78.65  104.1146
78.6  78.2182
78.55  99.95782
78.5  133.17854
78.45  160.71366
78.4  129.01616
78.35  147.6536
78.3  129.98842
78.25  62.512
78.2  98.23438
78.15  159.05644
78.1  96.08418
78.05  127.03398
78  142.75364
77.95  100.70698
77.9  107.415
77.85  154.13136
77.8  113.79402
77.75  87.67982
77.7  121.68418
77.65  175.32442
77.6  105.12702
77.55  117.94378
77.5  97.6778
77.45  103.88222
77.4  98.16138
77.35  120.20818
77.3  112.0068
77.25  105.09022
77.2  160.2512
77.15  126.05042
77.1  89.88176
77.05  41.66104
77  72.24176
76.95  139.30864
76.9  142.0878
76.85  96.63094
76.8  132.47926
76.75  99.77558
76.7  85.6494
76.65  37.94802
76.6  103.36078
76.55  102.34076
76.5  160.57226
76.45  116.85098
76.4  110.5846
76.35  119.119
76.3  101.79442
76.25  110.77796
76.2  140.4504
76.15  114.43002
76.1  125.42238
76.05  108.65702
76  111.30038
75.95  74.52924
75.9  97.9186
75.85  76.75058
75.8  83.1212
75.75  117.0402
75.7  155.8764
75.65  100.11518
75.6  96.38362
75.55  72.85362
75.5  80.4946
75.45  102.841
75.4  89.2694
75.35  180.55498
75.3  73.78462
75.25  65.62214
75.2  116.92604
75.15  105.6026
75.1  95.0424
75.05  90.42522
75  68.1773

# Operation:                    Peak Location
# Range Start:                  88.979
# Range End:                    81.9037
# Parameter: "Peak-Annotation" = Peak at <Peak (x):@>
#
# Result:
# Number of Results:            1
# Parameter: "Peak (x)" = 86.519272694372376 eV +- 0.036242728403657741
# Parameter: "Peak (y)" = 391.18021484026804 cps
# Parameter: "Fit Start" = 1165.8400000000001 eV
# Parameter: "Fit End" = 1170.2900000000002 eV
#
# Result Name:                  Peak Location
# Number of Curves:             1
#
# Curve:                        0
# Values/Curve:                 90
#
87.8  143.14496
87.75  149.11419
87.7  155.73859
87.65  163.03439
87.6  171.00756
87.55  179.65219
87.5  188.94895
87.45  198.86384
87.4  209.34717
87.35  220.33297
87.3  231.73871
87.25  243.46567
87.2  255.39974
87.15  267.41272
87.1  279.36435
87.05  291.10465
87  302.47692
86.95  313.32106
86.9  323.4772
86.85  332.78961
86.8  341.1106
86.75  348.30441
86.7  354.25091
86.65  358.84889
86.6  362.01896
86.55  363.70579
86.5  363.87978
86.45  362.53786
86.4  359.70362
86.35  355.42659
86.3  349.78084
86.25  342.8628
86.2  334.78856
86.15  325.69061
86.1  315.71423
86.05  305.01368
86  293.74821
85.95  282.07821
85.9  270.16146
85.85  258.14975
85.8  246.18581
85.75  234.40079
85.7  222.91216
85.65  211.82228
85.6  201.21741
85.55  191.16733
85.5  181.7254
85.45  172.92916
85.4  164.80118
85.35  157.35032
85.3  150.5732
85.25  144.45578
85.2  138.97509
85.15  134.10094
85.1  129.79759
85.05  126.02533
85  122.74195
84.95  119.90403
84.9  117.46807
84.85  115.39146
84.8  113.63318
84.75  112.15446
84.7  110.91916
84.65  109.89406
84.6  109.04899
84.55  108.35692
84.5  107.79383
84.45  107.33866
84.4  106.97311
84.35  106.68141
84.3  106.45014
84.25  106.26795
84.2  106.12533
84.15  106.0144
84.1  105.92866
84.05  105.86281
84  105.81256
83.95  105.77444
83.9  105.74571
83.85  105.72419
83.8  105.70818
83.75  105.69633
83.7  105.68762
83.65  105.68126
83.6  105.67664
83.55  105.6733
83.5  105.67091
83.45  105.66921
83.4  105.668
83.35  105.66715

# Region:                       Ti 2p
# Spectrum ID:                  2
# Acquisition Date:             02/05/25 15:22:34 UTC-5
# Analysis Method:              XPS
# Analyzer:                     PHOIBOS MCD5 Analyzer
# Analyzer Lens:                LargeArea:1.5kV
# Analyzer Slit:                8:7dia.\B:open
# Scan Mode:                    FixedAnalyzerTransmission
# Curves/Scan:                  1
# Values/Curve:                 401
# Dwell Time:                   0.2
# Excitation Energy:            1253.64
# Binding Energy:               470
# Pass Energy:                  10
# Bias Voltage:                 90
# Detector Voltage:             3000
# Eff. Workfunction:            4.543
# Source:                       X-Ray Dummy
# Comment:                      
#
# Cycle: 0
# Number of Scans: 1
#
# Cycle: 0, Curve: 0
# Acquisition Date:             02/05/25 15:22:34 UTC-5
#
# ColumnLabels:                 energy counts/s
#
470  275.08964
469.95  262.17058
469.9  276.35606
469.85  337.82958
469.8  284.22705
469.75  298.29892
469.7  367.22124
469.65  315.8915
469.6  348.10647
469.55  334.36574
469.5  242.62589
469.45  320.052
469.4  303.75112
469.35  303.75289
469.3  413.31031
469.25  294.24319
469.2  374.87116
469.15  335.23139
469.1  328.43992
469.05  328.38979
469  314.34712
468.95  312.76581
468.9  275.88491
468.85  304.89669
468.8  339.90418
468.75  337.84535
468.7  283.68843
468.65  375.38753
468.6  374.5048
468.55  399.30751
468.5  386.41056
468.45  320.79033
468.4  354.37687
468.35  403.32501
468.3  367.7982
468.25  409.20267
468.2  522.96676
468.15  425.43825
468.1  417.59507
468.05  462.79958
468  417.96595
467.95  441.35413
467.9  405.17758
467.85  469.0025
467.8  475.27547
467.75  536.74294
467.7  477.43079
467.65  511.9515
467.6  466.98698
467.55  459.01516
467.5  473.48003
467.45  571.25881
467.4  507.93982
467.35  528.07939
467.3  454.52011
467.25  494.30273
467.2  538.43244
467.15  547.2194
467.1  600.19094
467.05  483.45538
467  537.78679
466.95  467.06644
466.9  504.96479
466.85  594.82214
466.8  555.79624
466.75  524.63839
466.7  519.41335
466.65  449.17501
466.6  439.61419
466.55  403.98147
466.5  367.3301
466.45  429.31412
466.4  516.81412
466.35  412.55467
466.3  409.37429
466.25  441.14742
466.2  428.36421
466.15  445.11851
466.1  390.23712
466.05  440.67227
466  403.59059
465.95  389.1177
465.9  430.43485
465.85  436.36864
465.8  367.46991
465.75  383.51473
465.7  331.94772
465.65  342.16565
465.6  386.17977
465.55  413.23963
465.5  328.31447
465.45  298.06265
465.4  316.21621
465.35  264.38395
465.3  304.76451
465.25  317.86621
465.2  298.78082
465.15  322.63457
465.1  292.83713
465.05  328.8675
465  270.28801
464.95  287.53509
464.9  232.4603
464.85  284.26981
464.8  287.38615
464.75  290.28564
464.7  296.4412
464.65  263.96242
464.6  299.71488
464.55  314.94819
464.5  340.44756
464.45  331.43078
464.4  298.58349
464.35  264.1748
464.3  263.47014
464.25  308.55677
464.2  245.40537
464.15  279.87155
464.1  234.78285
464.05  257.57397
464  268.73296
463.95  231.66344
463.9  300.95941
463.85  319.13872
463.8  273.9365
463.75  295.91242
463.7  295.38458
463.65  303.70422
463.6  248.01427
463.55  294.72183
463.5  294.09649
463.45  298.21326
463.4  265.10302
463.35  291.60289
463.3  309.00121
463.25  311.92089
463.2  300.45095
463.15  295.50757
463.1  328.99477
463.05  367.82652
463  334.06964
462.95  325.34617
462.9  302.67265
462.85  355.83356
462.8  356.56345
462.75  359.04645
462.7  333.13827
462.65  331.18427
462.6  384.40057
462.55  417.39805
462.5  367.81319
462.45  448.16782
462.4  497.4344
462.35  425.80706
462.3  511.632
462.25  490.37205
462.2  531.73513
462.15  636.36912
462.1  665.52407
462.05  574.69124
462  652.67969
461.95  671.07887
461.9  719.97604
461.85  784.45241
461.8  870.21943
461.75  852.22359
461.7  857.83973
461.65  818.66751
461.6  898.28246
461.55  909.05882
461.5  849.76322
461.45  898.11235
461.4  851.33524
461.35  949.14992
461.3  899.82962
461.25  908.90481
461.2  947.76785
461.15  846.41851
461.1  920.10919
461.05  805.77337
461  768.82061
460.95  690.24867
460.9  639.63383
460.85  605.89543
460.8  569.21188
460.75  651.63976
460.7  573.19146
460.65  545.17529
460.6  642.34695
460.55  448.80955
460.5  408.76615
460.45  378.69066
460.4  423.05167
460.35  355.77901
460.3  292.34202
460.25  404.46846
460.2  363.82297
460.15  283.18156
460.1  287.03085
460.05  320.13824
460  275.66561
459.95  278.62708
459.9  271.1677
459.85  247.45664
459.8  293.20224
459.75  305.10874
459.7  249.3115
459.65  255.05907
459.6  235.1028
459.55  244.94872
459.5  251.65121
459.45  278.84546
459.4  272.39345
459.35  242.9072
459.3  224.02747
459.25  226.92633
459.2  187.41159
459.15  270.62425
459.1  288.20777
459.05  231.16188
459  202.68961
458.95  220.67496
458.9  236.4276
458.85  220.33772
458.8  270.2091
458.75  237.95838
458.7  262.00905
458.65  206.54098
458.6  214.84282
458.55  194.58687
458.5  242.38582
458.45  291.4624
458.4  273.52328
458.35  193.54861
458.3  193.76342
458.25  188.87198
458.2  216.90124
458.15  263.44253
458.1  207.69312
458.05  216.82991
458  188.16503
457.95  155.55137
457.9  210.95138
457.85  182.1627
457.8  170.6384
457.75  201.56663
457.7  257.26089
457.65  218.1133
457.6  197.7806
457.55  201.737
457.5  246.3963
457.45  250.43642
457.4  197.45759
457.35  185.94531
457.3  226.54
457.25  203.75437
457.2  237.01548
457.15  220.39604
457.1  208.70202
457.05  255.82649
457  227.78566
456.95  229.0052
456.9  238.95118
456.85  271.57275
456.8  198.80981
456.75  178.80527
456.7  200.9369
456.65  176.68521
456.6  192.42534
456.55  219.09977
456.5  209.7032
456.45  217.19661
456.4  178.1506
456.35  167.32247
456.3  203.6376
456.25  192.71093
456.2  190.71378
456.15  218.65149
456.1  245.67149
456.05  203.44863
456  200.84004
455.95  194.34051
455.9  145.64973
455.85  163.22471
455.8  179.98971
455.75  177.85861
455.7  192.14078
455.65  207.66819
455.6  184.1148
455.55  178.29383
455.5  213.97954
455.45  210.42522
455.4  176.90381
455.35  182.8089
455.3  162.29649
455.25  180.74451
455.2  182.96659
455.15  185.50519
455.1  206.03913
455.05  231.17431
455  255.82589
454.95  212.80761
454.9  215.04267
454.85  219.45621
454.8  161.68541
454.75  228.71328
454.7  218.43884
454.65  191.82866
454.6  129.10254
454.55  156.97528
454.5  175.7769
454.45  209.58638
454.4  202.95348
454.35  235.72634
454.3  195.84135
454.25  211.56213
454.2  228.34372
454.15  214.2131
454.1  205.9364
454.05  239.6176
454  220.61508
453.95  194.44179
453.9  213.71133
453.85  189.44398
453.8  212.36913
453.75  182.21578
453.7  187.17851
453.65  185.52431
453.6  219.61758
453.55  210.09722
453.5  233.46809
453.45  227.389
453.4  196.80527
453.35  177.47283
453.3  205.9813
453.25  227.37817
453.2  223.4715
453.15  266.87539
453.1  254.01343
453.05  261.25044
453  241.44018
452.95  233.36929
452.9  186.9285
452.85  235.58181
452.8  227.89569
452.75  237.81427
452.7  229.49462
452.65  236.16124
452.6  186.36306
452.55  249.30667
452.5  246.42313
452.45  183.29069
452.4  198.99029
452.35  211.07174
452.3  193.69226
452.25  205.52663
452.2  242.1776
452.15  240.9512
452.1  186.69641
452.05  187.74538
452  212.20291
451.95  216.4317
451.9  190.82656
451.85  231.39106
451.8  228.59614
451.75  228.71793
451.7  228.47472
451.65  177.00419
451.6  242.91268
451.55  191.0839
451.5  209.79188
451.45  231.99366
451.4  193.29247
451.35  178.46599
451.3  192.84979
451.25  230.75962
451.2  221.01264
451.15  166.08569
451.1  214.73348
451.05  236.70619
451  220.79668
450.95  239.20521
450.9  220.03681
450.85  234.5213
450.8  154.4348
450.75  147.4967
450.7  147.69332
450.65  179.66409
450.6  204.47642
450.55  176.3078
450.5  191.58919
450.45  167.92941
450.4  202.72869
450.35  152.37058
450.3  164.6181
450.25  205.53381
450.2  197.0442
450.15  200.49951
450.1  187.59347
450.05  191.60843
450  159.6171

# Operation:                    Peak Location
# Range Start:                  463.336
# Range End:                    455.266
# Parameter: "Peak-Annotation" = Peak at <Peak (x):@>
#
# Result:
# Number of Results:            1
# Parameter: "Peak (x)" = 461.42857703720415 eV +- 0.023680118812512908
# Parameter: "Peak (y)" = 882.74630469608326 cps
# Parameter: "Fit Start" = 791.6400000000001 eV
# Parameter: "Fit End" = 792.94000000000005 eV
#
# Result Name:                  Peak Location
# Number of Curves:             1
#
# Curve:                        0
# Values/Curve:                 27
#
462  658.75601
461.95  693.9652
461.9  728.62428
461.85  762.13697
461.8  793.8895
461.75  823.26886
461.7  849.68217
461.65  872.57645
461.6  891.45776
461.55  905.90891
461.5  915.60478
461.45  920.32444
461.4  919.95957
461.35  914.51857
461.3  904.12623
461.25  889.01897
461.2  869.53593
461.15  846.10628
461.1  819.23354
461.05  789.47759
461  757.43541
460.95  723.72129
460.9  688.94756
460.85  653.70664
460.8  618.55505
460.75  583.99999
460.7  550.48892

# Region:                       O 1s
# Spectrum ID:                  3
# Acquisition Date:             02/05/25 15:24:26 UTC-5
# Analysis Method:              XPS
# Analyzer:                     PHOIBOS MCD5 Analyzer
# Analyzer Lens:                LargeArea:1.5kV
# Analyzer Slit:                8:7dia.\B:open
# Scan Mode:                    FixedAnalyzerTransmission
# Curves/Scan:                  1
# Values/Curve:                 501
# Dwell Time:                   0.2
# Excitation Energy:            1253.64
# Binding Energy:               540
# Pass Energy:                  10
# Bias Voltage:                 90
# Detector Voltage:             3000
# Eff. Workfunction:            4.543
# Source:                       X-Ray Dummy
# Comment:                      
#
# Cycle: 0
# Number of Scans: 1
#
# Cycle: 0, Curve: 0
# Acquisition Date:             02/05/25 15:24:26 UTC-5
#
# ColumnLabels:                 energy counts/s
#
540  473.57931
539.95  448.88552
539.9  399.2364
539.85  467.30692
539.8  445.61339
539.75  431.03381
539.7  381.76336
539.65  409.9787
539.6  447.19973
539.55  471.40148
539.5  419.0416
539.45  424.61209
539.4  453.31402
539.35  414.27079
539.3  424.37629
539.25  534.48219
539.2  514.30863
539.15  486.25407
539.1  472.92191
539.05  466.24675
539  418.34317
538.95  474.00544
538.9  546.29803
538.85  472.12372
538.8  462.90653
538.75  503.51763
538.7  379.21288
538.65  461.45249
538.6  433.15408
538.55  478.76951
538.5  494.37459
538.45  475.66273
538.4  434.26843
538.35  457.58841
538.3  431.1023
538.25  417.55315
538.2  418.90088
538.15  355.06577
538.1  474.81491
538.05  451.28275
538  518.65538
537.95  447.62566
537.9  422.93115
537.85  429.10869
537.8  416.98381
537.75  431.97422
537.7  355.68388
537.65  434.3665
537.6  410.46201
537.55  413.10541
537.5  475.37039
537.45  465.61649
537.4  408.69817
537.35  487.62953
537.3  492.2224
537.25  465.08537
537.2  491.82294
537.15  496.10239
537.1  373.9743
537.05  449.91587
537  428.99973
536.95  399.86308
536.9  419.41898
536.85  459.34084
536.8  453.69249
536.75  399.27028
536.7  423.24463
536.65  361.9246
536.6  396.21125
536.55  433.43839
536.5  453.21814
536.45  501.19644
536.4  459.45396
536.35  390.86709
536.3  397.11162
536.25  416.03347
536.2  438.36927
536.15  515.3237
536.1  437.30067
536.05  501.15987
536  460.23983
535.95  381.27579
535.9  510.86088
535.85  527.76431
535.8  483.66701
535.75  481.75708
535.7  501.57161
535.65  466.38908
535.6  442.31249
535.55  501.13587
535.5  549.74016
535.45  481.87179
535.4  616.24647
535.35  555.03568
535.3  498.10291
535.25  463.83104
535.2  464.5656
535.15  532.77549
535.1  446.06599
535.05  592.11611
535  562.74724
534.95  527.11199
534.9  523.75666
534.85  546.5672
534.8  578.28167
534.75  557.09121
534.7  512.49326
534.65  562.07958
534.6  547.55852
534.55  624.01494
534.5  586.83263
534.45  603.60152
534.4  616.88228
534.35  586.74099
534.3  642.4149
534.25  635.21669
534.2  605.47759
534.15  553.40722
534.1  602.21679
534.05  595.57523
534  611.56587
533.95  623.29379
533.9  647.16272
533.85  725.70241
533.8  760.62017
533.75  734.02275
533.7  727.7995
533.65  783.7305
533.6  733.62704
533.55  775.91127
533.5  779.95832
533.45  856.692
533.4  896.20084
533.35  907.16919
533.3  890.37162
533.25  965.94153
533.2  957.72959
533.15  1094.9668
533.1  1023.5299
533.05  1132.0101
533  1021.8585
532.95  1137.4867
532.9  1224.568
532.85  1367.8107
532.8  1206.6533
532.75  1244.359
532.7  1237.8303
532.65  1287.0578
532.6  1436.2465
532.55  1282.9387
532.5  1181.798
532.45  1228.856
532.4  1208.5371
532.35  1200.1339
532.3  1048.7211
532.25  1001.6546
532.2  959.09956
532.15  978.82883
532.1  983.57433
532.05  857.03601
532  888.33508
531.95  884.72416
531.9  785.24593
531.85  828.92436
531.8  749.95555
531.75  802.76676
531.7  681.25081
531.65  605.06383
531.6  638.20257
531.55  576.43717
531.5  546.48334
531.45  507.35139
531.4  441.10561
531.35  436.03607
531.3  560.75414
531.25  488.88127
531.2  404.68366
531.15  379.6675
531.1  431.73661
531.05  450.25966
531  472.7564
530.95  499.29371
530.9  379.78598
530.85  356.36159
530.8  416.96814
530.75  368.95828
530.7  434.93659
530.65  445.31918
530.6  478.00124
530.55  406.68142
530.5  342.24132
530.45  353.48517
530.4  342.50611
530.35  417.63678
530.3  424.46634
530.25  398.72064
530.2  370.38552
530.15  379.88275
530.1  378.67095
530.05  363.64601
530  382.81291
529.95  462.79096
529.9  383.45291
529.85  390.80464
529.8  357.85285
529.75  334.65763
529.7  441.36642
529.65  424.85825
529.6  375.47254
529.55  378.80709
529.5  406.8357
529.45  430.6849
529.4  392.47266
529.35  471.93246
529.3  321.95236
529.25  355.47461
529.2  360.6363
529.15  324.49173
529.1  370.52978
529.05  405.83788
529  424.10293
528.95  379.18262
528.9  414.90892
528.85  431.21363
528.8  393.25282
528.75  359.28252
528.7  360.52829
528.65  355.48672
528.6  344.82206
528.55  322.87122
528.5  365.14951
528.45  329.30127
528.4  422.93263
528.35  369.49235
528.3  328.27724
528.25  352.29299
528.2  357.36569
528.15  453.79962
528.1  388.02783
528.05  373.26069
528  355.48838
527.95  397.08277
527.9  404.89098
527.85  385.28931
527.8  396.74455
527.75  356.8546
527.7  369.53748
527.65  430.16189
527.6  355.045
527.55  376.06273
527.5  336.42109
527.45  320.39186
527.4  372.98723
527.35  452.15043
527.3  378.57661
527.25  391.93179
527.2  428.4484
527.15  295.6501
527.1  297.97369
527.05  342.73904
527  390.296
526.95  500.17616
526.9  378.87558
526.85  359.45859
526.8  423.93479
526.75  370.73191
526.7  354.57377
526.65  429.76353
526.6  350.2375
526.55  383.44572
526.5  297.56823
526.45  362.52424
526.4  370.46559
526.35  421.81782
526.3  412.16341
526.25  400.52797
526.2  378.86009
526.15  428.44019
526.1  416.40782
526.05  462.0877
526  396.71931
525.95  369.69405
525.9  360.74567
525.85  389.54429
525.8  436.14054
525.75  355.49997
525.7  396.89461
525.65  407.3981
525.6  377.328
525.55  361.00342
525.5  414.29082
525.45  423.25532
525.4  499.30015
525.35  471.72878
525.3  442.79686
525.25  454.19121
525.2  340.63442
525.15  361.30201
525.1  402.62551
525.05  363.0027
525  366.96926
524.95  420.13635
524.9  431.95071
524.85  467.5266
524.8  463.91419
524.75  409.17016
524.7  350.54483
524.65  461.73318
524.6  478.99847
524.55  466.39864
524.5  494.07661
524.45  414.06697
524.4  438.7507
524.35  377.89658
524.3  443.92397
524.25  388.25677
524.2  400.16153
524.15  489.85115
524.1  446.41339
524.05  460.98109
524  450.55055
523.95  445.16217
523.9  398.79652
523.85  446.02957
523.8  487.99745
523.75  348.77022
523.7  380.76367
523.65  419.72421
523.6  383.51262
523.55  423.89295
523.5  371.66843
523.45  480.10419
523.4  430.59908
523.35  445.5314
523.3  371.99992
523.25  384.01977
523.2  360.36393
523.15  403.76777
523.1  467.73752
523.05  417.21248
523  442.8368
522.95  433.22391
522.9  382.55921
522.85  402.69379
522.8  473.97058
522.75  443.14584
522.7  414.99637
522.65  331.8789
522.6  404.03969
522.55  305.75383
522.5  343.73704
522.45  382.57346
522.4  394.70773
522.35  428.43452
522.3  401.85305
522.25  414.5663
522.2  381.18414
522.15  433.72455
522.1  431.11657
522.05  458.95721
522  441.07565
521.95  376.46361
521.9  561.56048
521.85  405.32099
521.8  336.02399
521.75  392.47034
521.7  280.64116
521.65  356.93024
521.6  425.88831
521.55  426.60453
521.5  407.74555
521.45  436.06763
521.4  365.76858
521.35  371.42599
521.3  367.47438
521.25  396.9711
521.2  383.56179
521.15  350.62245
521.1  384.82859
521.05  394.94065
521  326.92984
520.95  341.9272
520.9  424.53745
520.85  352.93042
520.8  327.87841
520.75  374.10892
520.7  364.70169
520.65  417.21188
520.6  347.91619
520.55  368.5545
520.5  396.31206
520.45  323.81625
520.4  354.98595
520.35  308.45642
520.3  386.93614
520.25  382.80146
520.2  338.02394
520.15  363.0113
520.1  376.98165
520.05  383.08766
520  397.95642
519.95  345.97478
519.9  360.27198
519.85  361.31112
519.8  380.52779
519.75  416.58229
519.7  371.6745
519.65  392.20804
519.6  350.06324
519.55  382.89974
519.5  333.65687
519.45  338.79161
519.4  309.19493
519.35  326.4396
519.3  457.31727
519.25  344.9238
519.2  344.39581
519.15  378.02521
519.1  337.65048
519.05  371.66236
519  353.53156
518.95  278.82057
518.9  287.00423
518.85  380.66609
518.8  291.17302
518.75  285.1248
518.7  322.93935
518.65  330.90583
518.6  337.48203
518.55  370.19897
518.5  387.03013
518.45  433.32671
518.4  392.46795
518.35  387.78903
518.3  359.67918
518.25  364.17674
518.2  418.91706
518.15  394.18691
518.1  320.6799
518.05  378.53616
518  391.18994
517.95  381.96776
517.9  368.05576
517.85  447.78094
517.8  382.08488
517.75  318.74514
517.7  297.3547
517.65  358.86851
517.6  317.63678
517.55  389.19439
517.5  406.28709
517.45  382.33784
517.4  320.87071
517.35  297.49785
517.3  348.99552
517.25  373.17241
517.2  396.66642
517.15  408.54871
517.1  358.91722
517.05  325.06814
517  403.47686
516.95  441.62668
516.9  342.6282
516.85  344.23119
516.8  330.4757
516.75  307.72308
516.7  320.5485
516.65  401.46214
516.6  327.08828
516.55  327.16272
516.5  312.96818
516.45  336.25421
516.4  355.28039
516.35  387.47539
516.3  365.53707
516.25  386.22245
516.2  332.39875
516.15  322.39241
516.1  408.66431
516.05  303.1466
516  378.84639
515.95  334.9574
515.9  312.63429
515.85  351.97815
515.8  342.0301
515.75  328.60825
515.7  332.06434
515.65  360.71468
515.6  408.16812
515.55  343.92349
515.5  312.53155
515.45  397.93515
515.4  373.32088
515.35  354.06516
515.3  311.09286
515.25  393.9274
515.2  400.36726
515.15  375.40285
515.1  355.52251
515.05  343.36795
515  407.59187

# Operation:                    Peak Location
# Range Start:                  537.534
# Range End:                    523.659
# Parameter: "Peak-Annotation" = Peak at <Peak (x):@>
#
# Result:
# Number of Results:            1
# Parameter: "Peak (x)" = 532.67070348266441 eV +- 0.021681927748772097
# Parameter: "Peak (y)" = 1293.2629211343528 cps
# Parameter: "Fit Start" = 720.3900000000001 eV
# Parameter: "Fit End" = 721.69000000000005 eV
#
# Result Name:                  Peak Location
# Number of Curves:             1
#
# Curve:                        0
# Values/Curve:                 27
#
533.25  940.51264
533.2  985.32021
533.15  1028.832
533.1  1070.4132
533.05  1109.4272
533  1145.2513
532.95  1177.2933
532.9  1205.0075
532.85  1227.9102
532.8  1245.5939
532.75  1257.7391
532.7  1264.1238
532.65  1264.6309
532.6  1259.2509
532.55  1248.0828
532.5  1231.3308
532.45  1209.2983
532.4  1182.3786
532.35  1151.0431
532.3  1115.8279
532.25  1077.3184
532.2  1036.1333
532.15  992.90789
532.1  948.2784
532.05  902.86657
532  857.2659
531.95  812.02961

# Region:                       Au 4f
# Spectrum ID:                  4
# Acquisition Date:             02/05/25 15:25:14 UTC-5
# Analysis Method:              XPS
# Analyzer:                     PHOIBOS MCD5 Analyzer
# Analyzer Lens:                LargeArea:1.5kV
# Analyzer Slit:                8:7dia.\B:open
# Scan Mode:                    FixedAnalyzerTransmission
# Curves/Scan:                  1
# Values/Curve:                 401
# Dwell Time:                   0.1
# Excitation Energy:            1253.64
# Binding Energy:               95
# Pass Energy:                  10
# Bias Voltage:                 90
# Detector Voltage:             3000
# Eff. Workfunction:            4.543
# Source:                       X-Ray Dummy
# Comment:                      
#
# Cycle: 0
# Number of Scans: 1
#
# Cycle: 0, Curve: 0
# Acquisition Date:             02/05/25 15:25:14 UTC-5
#
# ColumnLabels:                 energy counts/s
#
95  114.64296
94.95  171.7818
94.9  165.37662
94.85  158.7932
94.8  186.36102
94.75  77.066
94.7  85.7046
94.65  89.69674
94.6  150.41684
94.55  134.207
94.5  140.05112
94.45  171.17542
94.4  219.583
94.35  120.01366
94.3  148.1592
94.25  127.68938
94.2  123.37604
94.15  86.07998
94.1  113.92482
94.05  188.17394
94  162.11304
93.95  146.82678
93.9  119.5512
93.85  125.66144
93.8  112.71118
93.75  92.0068
93.7  143.70938
93.65  127.12742
93.6  117.68518
93.55  110.14404
93.5  122.2628
93.45  222.85718
93.4  210.55096
93.35  162.32226
93.3  113.68298
93.25  92.54922
93.2  72.8716
93.15  89.96376
93.1  96.37204
93.05  143.78658
93  175.0244
92.95  177.26462
92.9  153.4786
92.85  115.06658
92.8  119.7856
92.75  82.81842
92.7  122.24378
92.65  119.59742
92.6  84.318
92.55  135.70516
92.5  183.34182
92.45  123.0508
92.4  180.9802
92.35  132.10782
92.3  163.82974
92.25  121.47906
92.2  140.0504
92.15  145.98538
92.1  156.41578
92.05  149.80022
92  99.6116
91.95  133.88062
91.9  138.512
91.85  168.29916
91.8  191.18204
91.75  140.70336
91.7  151.8076
91.65  156.45402
91.6  139.6074
91.55  184.3506
91.5  127.99638
91.45  133.37444
91.4  161.417
91.35  71.00834
91.3  204.07722
91.25  198.6928
91.2  157.8318
91.15  173.62042
91.1  112.512
91.05  132.7742
91  218.9408
90.95  179.55162
90.9  214.11258
90.85  280.6545
90.8  291.4896
90.75  269.55468
90.7  196.20604
90.65  208.97878
90.6  224.54138
90.55  239.99902
90.5  349.67398
90.45  304.16878
90.4  226.46262
90.35  282.21322
90.3  227.52352
90.25  325.2252
90.2  426.48298
90.15  362.2943
90.1  362.46314
90.05  419.9804
90  352.32122
89.95  326.09002
89.9  315.777
89.85  351.64364
89.8  322.17658
89.75  302.65876
89.7  247.4112
89.65  312.81158
89.6  295.814
89.55  328.46386
89.5  242.8254
89.45  235.77022
89.4  170.81478
89.35  200.09356
89.3  184.61026
89.25  218.90356
89.2  170.6208
89.15  102.25702
89.1  153.59316
89.05  149.63626
89  178.82358
88.95  159.62798
88.9  175.499
88.85  128.96344
88.8  121.68316
88.75  187.61838
88.7  233.39646
88.65  169.2952
88.6  193.18112
88.55  160.03682
88.5  178.51402
88.45  175.1522
88.4  194.3732
88.35  174.13182
88.3  111.35358
88.25  129.49584
88.2  154.431
88.15  193.18634
88.1  157.15384
88.05  158.1056
88  145.96278
87.95  212.00462
87.9  168.96298
87.85  206.72638
87.8  137.07442
87.75  178.77158
87.7  193.26622
87.65  210.9356
87.6  205.33314
87.55  225.05268
87.5  162.12938
87.45  234.13182
87.4  187.69738
87.35  190.391
87.3  175.15582
87.25  177.0024
87.2  266.99698
87.15  171.16384
87.1  229.07654
87.05  322.9166
87  277.00964
86.95  258.96368
86.9  286.46304
86.85  360.31464
86.8  308.96622
86.75  360.62136
86.7  355.4854
86.65  399.13204
86.6  332.80842
86.55  277.90234
86.5  328.37598
86.45  434.79346
86.4  332.6444
86.35  281.3091
86.3  356.4677
86.25  343.46852
86.2  404.2518
86.15  414.07666
86.1  328.61382
86.05  274.448
86  255.9584
85.95  217.70458
85.9  325.80762
85.85  232.23398
85.8  198.29062
85.75  232.38
85.7  142.53056
85.65  250.96806
85.6  190.49776
85.55  161.31346
85.5  100.72756
85.45  128.10302
85.4  142.76334
85.35  172.61168
85.3  177.8806
85.25  135.2432
85.2  162.53774
85.15  142.65484
85.1  119.57322
85.05  174.1676
85  155.89976
84.95  163.13796
84.9  115.49906
84.85  93.12018
84.8  151.52682
84.75  118.1724
84.7  113.62
84.65  114.62182
84.6  86.59238
84.55  85.87122
84.5  106.8898
84.45  69.2316
84.4  147.77498
84.35  173.64622
84.3  101.2674
84.25  100.74478
84.2  123.28778
84.15  129.69404
84.1  116.48314
84.05  101.27464
84  138.77318
83.95  151.97102
83.9  96.45
83.85  77.159
83.8  87.67722
83.75  112.02736
83.7  102.94824
83.65  116.8078
83.6  60.009
83.55  122.26538
83.5  83.92338
83.45  69.48224
83.4  108.42096
83.35  179.62984
83.3  147.06354
83.25  117.21582
83.2  134.89924
83.15  91.5564
83.1  148.68958
83.05  103.29302
83  79.70516
82.95  105.89584
82.9  92.7786
82.85  119.8738
82.8  116.84198
82.75  123.95236
82.7  168.20586
82.65  146.4
82.6  131.49756
82.55  149.81544
82.5  113.9958
82.45  140.48198
82.4  66.90738
82.35  162.01244
82.3  104.90358
82.25  115.6604
82.2  85.41038
82.15  133.6336
82.1  135.67942
82.05  133.02382
82  94.574
81.95  95.03778
81.9  147.27238
81.85  135.02822
81.8  162.16598
81.75  130.1766
81.7  109.58584
81.65  119.51538
81.6  100.61656
81.55  139.21842
81.5  235.00278
81.45  145.47026
81.4  110.8656
81.35  71.3178
81.3  134.93878
81.25  118.2408
81.2  115.8628
81.15  134.17862
81.1  98.01998
81.05  83.60682
81  134.72438
80.95  148.13616
80.9  120.98182
80.85  125.13162
80.8  91.56436
80.75  115.45862
80.7  138.9182
80.65  167.5122
80.6  120.67022
80.55  104.45318
80.5  164.07242
80.45  137.6536
80.4  91.1716
80.35  107.815
80.3  130.02622
80.25  138.93618
80.2  158.19122
80.15  143.17596
80.1  137.09164
80.05  56.6266
80  65.0838
79.95  52.94518
79.9  98.64642
79.85  76.1214
79.8  62.10678
79.75  129.58682
79.7  146.10676
79.65  104.82884
79.6  77.0466
79.55  111.6782
79.5  99.1622
79.45  80.02214
79.4  85.89542
79.35  154.90662
79.3  113.78762
79.25  114.72698
79.2  83.2668
79.15  119.80122
79.1  75.09078
79.05  119.49796
79  104.59866
78.95  110.29018
78.9  110.8232
78.85  131.806
78.8  92.2292
78.75  151.02802
78.7  141.87756
78.65  88.5562
78.6  113.68142
78.55  65.2936
78.5  102.442
78.45  162.99702
78.4  103.0066
78.35  92.68498
78.3  96.1456
78.25  107.63302
78.2  78.22818
78.15  145.64142
78.1  133.6868
78.05  89.6468
78  84.64498
77.95  108.53822
77.9  119.3928
77.85  107.8014
77.8  104.4478
77.75  110.58818
77.7  158.19296
77.65  125.61466
77.6  98.71336
77.55  123.62824
77.5  155.69838
77.45  130.6996
77.4  61.2384
77.35  89.3688
77.3  111.94796
77.25  150.06142
77.2  112.7464
77.15  66.63022
77.1  91.8034
77.05  121.5458
77  112.09882
76.95  67.41558
76.9  101.5674
76.85  94.83782
76.8  59.9406
76.75  135.03598
76.7  105.5538
76.65  106.0972
76.6  73.13642
76.55  73.84236
76.5  137.02964
76.45  109.41978
76.4  109.06498
76.35  177.38802
76.3  85.7304
76.25  76.71118
76.2  109.25724
76.15  116.8258
76.1  117.32096
76.05  119.15364
76  83.0156
75.95  91.29934
75.9  129.76704
75.85  84.92722
75.8  126.42678
75.75  136.64382
75.7  98.7128
75.65  78.48838
75.6  83.52798
75.55  182.5036
75.5  173.6956
75.45  96.89042
75.4  119.28836
75.35  147.179
75.3  132.91246
75.25  139.6288
75.2  77.62998
75.15  111.9312
75.1  100.53142
75.05  142.43196
75  92.00322

# Operation:                    Peak Location
# Range Start:                  88.7602
# Range End:                    83.5938
# Parameter: "Peak-Annotation" = Peak at <Peak (x):@>
#
# Result:
# Number of Results:            0
# Parameter: "<Error>" = Unable to detect peak.
#

# Region:                       Ti 2p
# Spectrum ID:                  5
# Acquisition Date:             02/05/25 15:26:44 UTC-5
# Analysis Method:              XPS
# Analyzer:                     PHOIBOS MCD5 Analyzer
# Analyzer Lens:                LargeArea:1.5kV
# Analyzer Slit:                8:7dia.\B:open
# Scan Mode:                    FixedAnalyzerTransmission
# Curves/Scan:                  1
# Values/Curve:                 401
# Dwell Time:                   0.2
# Excitation Energy:            1253.64
# Binding Energy:               470
# Pass Energy:                  10
# Bias Voltage:                 90
# Detector Voltage:             3000
# Eff. Workfunction:            4.543
# Source:                       X-Ray Dummy
# Comment:                      
#
# Cycle: 0
# Number of Scans: 1
#
# Cycle: 0, Curve: 0
# Acquisition Date:             02/05/25 15:26:44 UTC-5
#
# ColumnLabels:                 energy counts/s
#
470  317.09854
469.95  348.33331
469.9  324.01135
469.85  325.82502
469.8  307.00501
469.75  290.70481
469.7  375.7868
469.65  356.86788
469.6  352.20529
469.55  314.30887
469.5  329.56242
469.45  355.79463
469.4  283.1138
469.35  344.95161
469.3  316.00501
469.25  270.86287
469.2  293.257
469.15  290.79813
469.1  297.54277
469.05  376.26098
469  382.87042
468.95  357.05517
468.9  310.22603
468.85  312.50279
468.8  362.68492
468.75  368.17602
468.7  307.56457
468.65  353.21786
468.6  441.82776
468.55  376.33458
468.5  421.83911
468.45  408.43086
468.4  373.94801
468.35  397.61952
468.3  377.73454
468.25  424.95339
468.2  480.54519
468.15  411.25455
468.1  385.02451
468.05  496.58962
468  408.66527
467.95  445.49696
467.9  418.28347
467.85  375.35388
467.8  529.80563
467.75  436.2376
467.7  454.76912
467.65  496.30339
467.6  515.25726
467.55  483.28791
467.5  491.93948
467.45  468.19778
467.4  522.20672
467.35  485.66588
467.3  504.62004
467.25  468.74356
467.2  571.09957
467.15  544.68877
467.1  503.34862
467.05  493.03729
467  467.44328
466.95  483.25217
466.9  535.65564
466.85  525.63672
466.8  456.03396
466.75  451.88941
466.7  503.30618
466.65  441.04097
466.6  497.25538
466.55  501.07184
466.5  500.87085
466.45  453.4755
466.4  469.99085
466.35  436.88124
466.3  420.22624
466.25  406.08348
466.2  320.96959
466.15  404.40577
466.1  439.7459
466.05  408.26745
466  342.7328
465.95  375.11495
465.9  493.83765
465.85  443.23927
465.8  445.94942
465.75  303.95433
465.7  420.41117
465.65  312.61382
465.6  365.50488
465.55  310.72512
465.5  329.52289
465.45  266.76128
465.4  330.27581
465.35  292.02389
465.3  236.06182
465.25  312.54248
465.2  333.79868
465.15  322.00315
465.1  281.16579
465.05  354.00786
465  350.6427
464.95  417.91689
464.9  317.58418
464.85  254.62236
464.8  273.32641
464.75  306.48699
464.7  392.14861
464.65  231.67278
464.6  273.5584
464.55  242.99154
464.5  273.18448
464.45  260.82537
464.4  328.4176
464.35  357.4643
464.3  284.40141
464.25  308.24372
464.2  294.93069
464.15  300.19951
464.1  343.77781
464.05  278.65
464  359.52883
463.95  301.41025
463.9  278.71611
463.85  291.7186
463.8  285.57399
463.75  291.20186
463.7  296.62913
463.65  333.31059
463.6  335.43195
463.55  224.02061
463.5  235.78766
463.45  269.7924
463.4  305.00781
463.35  279.4954
463.3  326.76111
463.25  282.21933
463.2  348.90424
463.15  354.02576
463.1  314.19564
463.05  363.33602
463  333.7977
462.95  330.45624
462.9  317.04097
462.85  277.41496
462.8  307.74982
462.75  395.21917
462.7  422.56931
462.65  385.03761
462.6  336.41206
462.55  341.17181
462.5  418.95448
462.45  451.58181
462.4  403.44379
462.35  453.58848
462.3  548.22719
462.25  581.07955
462.2  577.2214
462.15  607.87087
462.1  665.98203
462.05  648.06458
462  654.8224
461.95  720.78566
461.9  794.02911
461.85  824.52714
461.8  787.63522
461.75  815.87246
461.7  874.84782
461.65  908.00397
461.6  1000.5235
461.55  958.00047
461.5  1024.8897
461.45  994.83224
461.4  1026.4838
461.35  964.16958
461.3  985.56745
461.25  950.40317
461.2  997.00981
461.15  921.35552
461.1  952.84689
461.05  838.9615
461  835.38925
460.95  734.87617
460.9  795.25226
460.85  636.01644
460.8  599.8939
460.75  552.02604
460.7  470.78778
460.65  524.6264
460.6  564.191
460.55  486.12797
460.5  452.37553
460.45  441.31915
460.4  375.63629
460.35  399.73212
460.3  314.5971
460.25  366.04551
460.2  310.66916
460.15  300.61473
460.1  300.37891
460.05  309.63354
460  300.13345
459.95  290.06749
459.9  273.90042
459.85  299.18417
459.8  268.13962
459.75  302.41382
459.7  276.20137
459.65  317.83058
459.6  273.77482
459.55  274.75319
459.5  255.94685
459.45  197.43948
459.4  258.55231
459.35  238.45547
459.3  259.44651
459.25  290.27606
459.2  240.25573
459.15  197.44911
459.1  205.20912
459.05  265.24367
459  254.62558
458.95  253.31214
458.9  225.93719
458.85  200.37793
458.8  241.33987
458.75  200.543
458.7  257.09059
458.65  206.33221
458.6  274.7938
458.55  233.9047
458.5  265.93472
458.45  207.72396
458.4  209.53404
458.35  223.79311
458.3  201.67288
458.25  252.67171
458.2  212.658
458.15  205.11096
458.1  208.45993
458.05  247.72899
458  202.56698
457.95  267.1163
457.9  180.31704
457.85  227.36948
457.8  210.66229
457.75  189.6676
457.7  226.01723
457.65  248.75819
457.6  212.9239
457.55  190.584
457.5  221.5371
457.45  174.8757
457.4  191.5165
457.35  197.03961
457.3  203.70128
457.25  234.1014
457.2  199.6941
457.15  193.7296
457.1  230.51632
457.05  232.3545
457  231.07309
456.95  201.34853
456.9  199.35165
456.85  222.37424
456.8  216.62466
456.75  191.71151
456.7  168.30982
456.65  218.74798
456.6  252.59991
456.55  223.7417
456.5  230.89961
456.45  221.93589
456.4  195.40951
456.35  196.26863
456.3  226.29976
456.25  209.80451
456.2  202.17426
456.15  202.11824
456.1  186.45498
456.05  170.99919
456  169.3435
455.95  198.96843
455.9  232.83121
455.85  234.19114
455.8  198.70096
455.75  178.84648
455.7  174.77239
455.65  168.61993
455.6  164.09046
455.55  219.28197
455.5  196.01793
455.45  193.93901
455.4  159.8841
455.35  182.08142
455.3  182.56219
455.25  176.56423
455.2  174.48025
455.15  195.60448
455.1  227.38313
455.05  227.44172
455  152.26319
454.95  177.76992
454.9  127.64657
454.85  161.66253
454.8  227.29878
454.75  205.1491
454.7  169.8773
454.65  175.04692
454.6  154.76668
454.55  231.37319
454.5  280.2231
454.45  251.5997
454.4  204.84413
454.35  151.08001
454.3  156.42735
454.25  176.66781
454.2  214.3169
454.15  186.21293
454.1  184.66247
454.05  186.92061
454  185.0755
453.95  149.42997
453.9  177.974
453.85  223.30169
453.8  191.66385
453.75  191.1056
453.7  200.79338
453.65  219.72281
453.6  209.20503
453.55  221.40184
453.5  230.07065
453.45  227.57059
453.4  229.80101
453.35  229.71196
453.3  230.52381
453.25  220.04971
453.2  209.16311
453.15  253.03338
453.1  241.66361
453.05  215.05441
453  195.0883
452.95  278.33335
452.9  259.97953
452.85  240.87038
452.8  222.11901
452.75  272.43693
452.7  247.04408
452.65  255.93529
452.6  268.30779
452.55  234.4946
452.5  227.07883
452.45  264.6202
452.4  240.14639
452.35  203.18503
452.3  172.07625
452.25  235.60919
452.2  232.1156
452.15  261.25514
452.1  242.94832
452.05  215.1295
452  201.90409
451.95  231.72666
451.9  242.47572
451.85  219.8865
451.8  142.47889
451.75  206.47671
451.7  240.24591
451.65  176.46898
451.6  239.00825
451.55  235.05517
451.5  191.46168
451.45  214.42963
451.4  198.7795
451.35  204.65938
451.3  230.44988
451.25  213.55807
451.2  268.52314
451.15  214.47573
451.1  235.86546
451.05  250.30952
451  186.0101
450.95  195.97343
450.9  236.13535
450.85  216.05704
450.8  245.05808
450.75  262.90114
450.7  235.04683
450.65  238.03884
450.6  206.91351
450.55  207.55009
450.5  237.12889
450.45  215.288
450.4  211.28974
450.35  221.3333
450.3  189.62317
450.25  143.10432
450.2  140.63948
450.15  168.45286
450.1  173.28014
450.05  176.2249
450  178.94351

# Operation:                    Peak Location
# Range Start:                  463.336
# Range End:                    455.266
# Parameter: "Peak-Annotation" = Peak at <Peak (x):@>
#
# Result:
# Number of Results:            1
# Parameter: "Peak (x)" = 461.41299542175682 eV +- 0.017310973445879521
# Parameter: "Peak (y)" = 1004.7317344754948 cps
# Parameter: "Fit Start" = 791.6400000000001 eV
# Parameter: "Fit End" = 792.84000000000015 eV
#
# Result Name:                  Peak Location
# Number of Curves:             1
#
# Curve:                        0
# Values/Curve:                 25
#
462  646.72816
461.95  700.66708
461.9  750.92197
461.85  797.20117
461.8  839.23215
461.75  876.7642
461.7  909.57094
461.65  937.45254
461.6  960.23779
461.55  977.78581
461.5  989.98757
461.45  996.76692
461.4  998.08149
461.35  993.92304
461.3  984.31759
461.25  969.32515
461.2  949.03908
461.15  923.58513
461.1  893.12014
461.05  857.83043
461  817.92991
460.95  773.6579
460.9  725.27679
460.85  673.06937
460.8  617.33617

# Region:                       O 1s
# Spectrum ID:                  6
# Acquisition Date:             02/05/25 15:28:35 UTC-5
# Analysis Method:              XPS
# Analyzer:                     PHOIBOS MCD5 Analyzer
# Analyzer Lens:                LargeArea:1.5kV
# Analyzer Slit:                8:7dia.\B:open
# Scan Mode:                    FixedAnalyzerTransmission
# Curves/Scan:                  1
# Values/Curve:                 501
# Dwell Time:                   0.2
# Excitation Energy:            1253.64
# Binding Energy:               540
# Pass Energy:                  10
# Bias Voltage:                 90
# Detector Voltage:             3000
# Eff. Workfunction:            4.543
# Source:                       X-Ray Dummy
# Comment:                      
#
# Cycle: 0
# Number of Scans: 1
#
# Cycle: 0, Curve: 0
# Acquisition Date:             02/05/25 15:28:35 UTC-5
#
# ColumnLabels:                 energy counts/s
#
540  427.42568
539.95  465.48917
539.9  412.51273
539.85  379.13815
539.8  490.42878
539.75  455.02722
539.7  526.48349
539.65  485.79318
539.6  420.16562
539.55  457.8501
539.5  400.26915
539.45  416.78655
539.4  406.05184
539.35  472.72869
539.3  445.33226
539.25  470.67919
539.2  444.47193
539.15  402.90439
539.1  477.6188
539.05  426.51701
539  485.5699
538.95  476.34249
538.9  437.43385
538.85  440.52937
538.8  410.8911
538.75  471.96743
538.7  407.38241
538.65  461.48845
538.6  465.78971
538.55  386.81551
538.5  475.46024
538.45  497.85406
538.4  399.10671
538.35  409.51092
538.3  483.27051
538.25  474.22122
538.2  398.06581
538.15  515.12116
538.1  393.76417
538.05  431.06171
538  414.8113
537.95  424.89866
537.9  479.2506
537.85  496.14604
537.8  372.3331
537.75  388.55827
537.7  418.22384
537.65  379.75146
537.6  362.65913
537.55  491.93844
537.5  508.56386
537.45  443.53449
537.4  431.8555
537.35  414.76888
537.3  362.52275
537.25  336.55988
537.2  401.36867
537.15  428.74155
537.1  414.53327
537.05  418.42398
537  482.38081
536.95  439.78002
536.9  411.55146
536.85  414.34291
536.8  450.11246
536.75  451.50444
536.7  459.75741
536.65  423.70292
536.6  396.20211
536.55  462.46125
536.5  420.05599
536.45  449.71981
536.4  478.60372
536.35  459.43224
536.3  468.15636
536.25  461.9814
536.2  440.10329
536.15  440.13379
536.1  437.68867
536.05  516.06133
536  451.82394
535.95  481.50091
535.9  552.27908
535.85  549.71169
535.8  520.57842
535.75  481.46841
535.7  477.44076
535.65  419.82601
535.6  409.13134
535.55  471.71928
535.5  460.10257
535.45  453.51641
535.4  453.12935
535.35  466.01533
535.3  475.08995
535.25  469.55037
535.2  496.29109
535.15  517.07799
535.1  511.31604
535.05  420.15578
535  515.86726
534.95  541.06353
534.9  518.0531
534.85  537.1199
534.8  562.62349
534.75  544.82192
534.7  602.56724
534.65  551.89482
534.6  511.34375
534.55  583.82232
534.5  621.23754
534.45  544.2581
534.4  519.6013
534.35  627.37441
534.3  613.75517
534.25  661.96181
534.2  566.12651
534.15  632.59525
534.1  643.79813
534.05  712.5025
534  720.94009
533.95  629.26676
533.9  597.32819
533.85  647.19878
533.8  785.68925
533.75  755.58191
533.7  765.99669
533.65  744.07751
533.6  863.8194
533.55  876.00424
533.5  771.55871
533.45  903.10154
533.4  924.26348
533.35  842.9814
533.3  974.5646
533.25  976.29528
533.2  963.66102
533.15  993.2846
533.1  1113.9836
533.05  1248.5942
533  1181.5675
532.95  1198.5369
532.9  1143.8268
532.85  1264.8283
532.8  1221.062
532.75  1214.1603
532.7  1403.1
532.65  1277.9331
532.6  1171.096
532.55  1097.6412
532.5  1284.744
532.45  1242.5912
532.4  1112.2702
532.35  1008.9641
532.3  924.89652
532.25  1020.8654
532.2  1036.2446
532.15  1049.2339
532.1  995.05337
532.05  859.81708
532  848.37795
531.95  842.91181
531.9  748.24853
531.85  645.52802
531.8  637.56444
531.75  549.18431
531.7  619.4069
531.65  542.62144
531.6  569.73844
531.55  587.79714
531.5  546.15822
531.45  598.62012
531.4  548.31926
531.35  595.81486
531.3  527.14953
531.25  456.28679
531.2  460.60895
531.15  409.91405
531.1  458.77056
531.05  460.97798
531  472.73503
530.95  439.62536
530.9  443.57535
530.85  380.35279
530.8  395.25534
530.75  376.75539
530.7  414.8856
530.65  328.06291
530.6  427.64554
530.55  442.14163
530.5  373.63129
530.45  483.57709
530.4  476.66751
530.35  437.28526
530.3  373.45055
530.25  332.64739
530.2  370.84731
530.15  371.68839
530.1  414.43389
530.05  388.14691
530  386.05141
529.95  424.50713
529.9  392.10827
529.85  437.2566
529.8  382.62838
529.75  418.68144
529.7  330.78817
529.65  416.77908
529.6  418.03017
529.55  353.17411
529.5  386.38056
529.45  386.87608
529.4  388.50853
529.35  313.61247
529.3  408.83853
529.25  417.82922
529.2  396.92354
529.15  369.38734
529.1  359.87018
529.05  364.27311
529  433.98781
528.95  417.01683
528.9  362.91364
528.85  397.44115
528.8  295.48576
528.75  371.77928
528.7  418.67293
528.65  380.63327
528.6  342.77654
528.55  361.21358
528.5  315.6611
528.45  364.72763
528.4  424.28776
528.35  361.90274
528.3  290.09259
528.25  380.53693
528.2  346.60236
528.15  432.386
528.1  404.10171
528.05  321.32272
528  356.35666
527.95  383.1005
527.9  461.7515
527.85  425.19579
527.8  362.3123
527.75  389.10534
527.7  338.92148
527.65  312.9648
527.6  354.10017
527.55  389.79014
527.5  332.19775
527.45  404.80506
527.4  332.05756
527.35  364.75673
527.3  389.73142
527.25  398.92443
527.2  379.77935
527.15  324.84767
527.1  352.75715
527.05  425.44678
527  374.9115
526.95  370.0175
526.9  403.48511
526.85  360.99976
526.8  346.7977
526.75  419.64407
526.7  419.00555
526.65  389.27571
526.6  362.01157
526.55  438.58686
526.5  415.75976
526.45  347.87043
526.4  357.49995
526.35  409.25003
526.3  358.2471
526.25  357.3745
526.2  344.05123
526.15  379.25577
526.1  434.38811
526.05  379.95169
526  380.04896
525.95  384.56979
525.9  378.88298
525.85  340.77615
525.8  420.78983
525.75  336.87263
525.7  330.85031
525.65  363.45773
525.6  331.62414
525.55  354.18455
525.5  340.86684
525.45  433.50377
525.4  395.0125
525.35  335.03771
525.3  383.68173
525.25  414.25959
525.2  385.59294
525.15  386.11232
525.1  439.20909
525.05  378.83994
525  412.93087
524.95  378.39132
524.9  390.85757
524.85  405.31351
524.8  375.35982
524.75  413.84814
524.7  474.58178
524.65  450.58167
524.6  458.19468
524.55  407.27604
524.5  491.56498
524.45  435.6042
524.4  459.67388
524.35  453.8161
524.3  515.32097
524.25  442.81455
524.2  453.91961
524.15  442.07568
524.1  495.85353
524.05  514.07487
524  493.81428
523.95  442.43601
523.9  415.37474
523.85  457.76417
523.8  480.29487
523.75  469.54339
523.7  434.74294
523.65  419.08483
523.6  423.51023
523.55  427.26436
523.5  446.15941
523.45  354.7194
523.4  395.01018
523.35  440.45499
523.3  389.95249
523.25  491.02599
523.2  470.10124
523.15  471.67062
523.1  419.59732
523.05  398.14849
523  420.43716
522.95  433.56492
522.9  390.24368
522.85  432.33621
522.8  390.59687
522.75  407.21592
522.7  379.81631
522.65  315.38476
522.6  394.80342
522.55  464.46781
522.5  432.19586
522.45  385.4804
522.4  368.34346
522.35  489.35427
522.3  456.48071
522.25  395.11353
522.2  370.01114
522.15  417.08111
522.1  355.50353
522.05  393.48988
522  457.78559
521.95  402.86747
521.9  441.75759
521.85  461.27955
521.8  371.64726
521.75  389.32615
521.7  406.98594
521.65  387.21594
521.6  370.50223
521.55  418.04836
521.5  431.99806
521.45  367.33727
521.4  304.56148
521.35  387.06661
521.3  375.74638
521.25  291.37397
521.2  329.01162
521.15  370.28067
521.1  345.20937
521.05  329.61509
521  401.77856
520.95  409.07865
520.9  380.06913
520.85  306.94749
520.8  308.51676
520.75  313.65049
520.7  402.03426
520.65  371.94478
520.6  318.15674
520.55  372.10187
520.5  383.90067
520.45  391.74871
520.4  325.36355
520.35  338.58534
520.3  350.43464
520.25  339.56709
520.2  335.42032
520.15  324.40137
520.1  331.36682
520.05  336.44648
520  303.54648
519.95  330.3622
519.9  368.64177
519.85  338.90875
519.8  365.26288
519.75  358.28506
519.7  341.87391
519.65  335.91919
519.6  277.08126
519.55  317.2838
519.5  333.85479
519.45  390.18288
519.4  336.22465
519.35  347.91168
519.3  369.96994
519.25  344.0161
519.2  313.52258
519.15  332.17567
519.1  398.98004
519.05  380.648
519  336.21545
518.95  315.00596
518.9  271.05061
518.85  342.67605
518.8  265.04154
518.75  314.05995
518.7  313.60454
518.65  286.43471
518.6  375.80343
518.55  404.62776
518.5  355.28244
518.45  364.61822
518.4  309.65863
518.35  331.88582
518.3  328.99463
518.25  307.76592
518.2  344.63562
518.15  341.04732
518.1  387.84118
518.05  308.38429
518  349.00733
517.95  370.92667
517.9  320.96615
517.85  369.76345
517.8  356.4195
517.75  347.07418
517.7  366.49185
517.65  296.64289
517.6  376.59709
517.55  379.68358
517.5  360.0936
517.45  400.94813
517.4  408.11329
517.35  401.06279
517.3  361.96908
517.25  350.52454
517.2  337.22977
517.15  335.82722
517.1  324.74829
517.05  319.52058
517  362.08939
516.95  341.11435
516.9  350.97108
516.85  341.34296
516.8  338.60207
516.75  310.58079
516.7  397.9251
516.65  380.00867
516.6  396.60261
516.55  354.65283
516.5  402.34636
516.45  322.12475
516.4  405.22116
516.35  300.14802
516.3  287.62287
516.25  301.67744
516.2  448.63742
516.15  336.49064
516.1  396.16601
516.05  305.71143
516  344.89255
515.95  406.83051
515.9  402.11692
515.85  373.67077
515.8  393.26194
515.75  344.75097
515.7  350.75632
515.65  381.93298
515.6  432.67512
515.55  425.26629
515.5  353.03649
515.45  321.51359
515.4  375.03854
515.35  354.45927
515.3  362.08562
515.25  346.02785
515.2  364.88117
515.15  368.09438
515.1  359.85083
515.05  277.5983
515  344.04569

# Operation:                    Peak Location
# Range Start:                  537.534
# Range End:                    523.659
# Parameter: "Peak-Annotation" = Peak at <Peak (x):@>
#
# Result:
# Number of Results:            1
# Parameter: "Peak (x)" = 532.71740601945726 eV +- 0.021555567749288834
# Parameter: "Peak (y)" = 1235.6126829419482 cps
# Parameter: "Fit Start" = 720.24000000000012 eV
# Parameter: "Fit End" = 721.6400000000001 eV
#
# Result Name:                  Peak Location
# Number of Curves:             1
#
# Curve:                        0
# Values/Curve:                 29
#
533.4  867.70917
533.35  908.41459
533.3  948.87199
533.25  988.58088
533.2  1027.0194
533.15  1063.6553
533.1  1097.9577
533.05  1129.41
533  1157.5227
532.95  1181.8457
532.9  1201.9805
532.85  1217.5911
532.8  1228.4132
532.75  1234.2616
532.7  1235.0356
532.65  1230.7219
532.6  1221.3949
532.55  1207.2144
532.5  1188.4215
532.45  1165.3312
532.4  1138.3242
532.35  1107.8361
532.3  1074.3458
532.25  1038.363
532.2  1000.4156
532.15  961.03674
532.1  920.7526
532.05  880.07128
532  839.47256

# Region:                       Au 4f
# Spectrum ID:                  7
# Acquisition Date:             02/05/25 15:30:27 UTC-5
# Analysis Method:              XPS
# Analyzer:                     PHOIBOS MCD5 Analyzer
# Analyzer Lens:                LargeArea:1.5kV
# Analyzer Slit:                8:7dia.\B:open
# Scan Mode:                    FixedAnalyzerTransmission
# Curves/Scan:                  1
# Values/Curve:                 167
# Dwell Time:                   0.15
# Excitation Energy:            1253.64
# Binding Energy:               88
# Pass Energy:                  10
# Bias Voltage:                 90
# Detector Voltage:             3000
# Eff. Workfunction:            4.543
# Source:                       X-Ray Dummy
# Comment:                      
#
# Cycle: 0
# Number of Scans: 3
#
# Cycle: 0, Curve: 0
# Acquisition Date:             02/05/25 15:30:27 UTC-5
#
# ColumnLabels:                 energy counts/s
#
88  164.9564
87.975904  162.93235
87.951807  160.31227
87.927711  186.53513
87.903614  188.14295
87.879518  152.69792
87.855422  177.05774
87.831325  180.79754
87.807229  179.63819
87.783133  158.17535
87.759036  172.34371
87.73494  168.10492
87.710843  187.62978
87.686747  192.77952
87.662651  155.50239
87.638554  182.69699
87.614458  171.203
87.590361  170.29561
87.566265  182.88325
87.542169  187.61048
87.518072  174.09834
87.493976  185.46695
87.46988  201.18001
87.445783  182.15594
87.421687  171.86533
87.39759  202.39195
87.373494  200.40453
87.349398  211.63573
87.325301  203.75653
87.301205  204.74533
87.277108  201.87484
87.253012  201.74205
87.228916  223.97944
87.204819  252.59826
87.180723  247.47827
87.156627  220.65931
87.13253  248.56695
87.108434  241.91298
87.084337  247.92875
87.060241  270.55593
87.036145  246.18473
87.012048  276.9446
86.987952  284.57452
86.963855  309.73848
86.939759  273.7538
86.915663  301.62178
86.891566  308.67093
86.86747  291.29239
86.843373  296.61848
86.819277  321.53614
86.795181  361.05493
86.771084  315.4818
86.746988  355.46029
86.722892  309.91885
86.698795  326.26799
86.674699  300.64513
86.650602  347.15403
86.626506  379.37322
86.60241  412.80064
86.578313  409.01756
86.554217  344.53818
86.53012  341.70565
86.506024  349.90457
86.481928  360.08028
86.457831  366.25564
86.433735  355.75256
86.409639  374.45934
86.385542  382.98662
86.361446  369.4102
86.337349  391.28788
86.313253  419.76798
86.289157  452.90549
86.26506  428.79507
86.240964  370.29271
86.216867  363.33199
86.192771  389.56385
86.168675  324.19258
86.144578  371.14888
86.120482  401.98028
86.096386  377.97718
86.072289  336.00467
86.048193  358.15628
86.024096  328.37042
86  277.00441
85.975904  313.8304
85.951807  315.8508
85.927711  293.43512
85.903614  255.7644
85.879518  291.1754
85.855422  298.29972
85.831325  283.4506
85.807229  259.85166
85.783133  279.02567
85.759036  269.04309
85.73494  255.15575
85.710843  247.43491
85.686747  265.79266
85.662651  243.22095
85.638554  199.419
85.614458  228.49554
85.590361  177.39264
85.566265  235.66349
85.542169  197.85785
85.518072  218.87892
85.493976  173.8107
85.46988  143.63423
85.445783  183.85856
85.421687  199.53673
85.39759  194.33087
85.373494  158.19742
85.349398  182.87543
85.325301  169.13013
85.301205  176.67762
85.277108  154.16392
85.253012  149.23491
85.228916  158.67589
85.204819  139.44407
85.180723  147.99564
85.156627  135.23128
85.13253  152.10962
85.108434  133.13048
85.084337  129.18538
85.060241  147.8171
85.036145  167.56581
85.012048  144.49648
84.987952  122.22153
84.963855  125.93848
84.939759  111.8069
84.915663  133.58109
84.891566  145.71704
84.86747  148.94464
84.843373  124.9095
84.819277  125.66079
84.795181  117.07927
84.771084  107.18278
84.746988  116.01392
84.722892  105.56074
84.698795  135.6665
84.674699  129.76417
84.650602  136.85409
84.626506  136.81689
84.60241  130.93358
84.578313  122.49043
84.554217  93.757462
84.53012  100.60345
84.506024  116.88672
84.481928  114.65443
84.457831  112.3336
84.433735  104.98348
84.409639  130.27288
84.385542  115.82186
84.361446  119.87072
84.337349  118.04283
84.313253  112.32633
84.289157  102.23183
84.26506  139.4561
84.240964  128.14258
84.216867  96.020256
84.192771  115.42318
84.168675  134.25883
84.144578  124.16378
84.120482  119.77004
84.096386  119.51603
84.072289  98.490869
84.048193  113.67185
84.024096  103.18807
84  104.97195

# Operation:                    Peak Location
# Range Start:                  88.5813
# Range End:                    83.6137
# Parameter: "Peak-Annotation" = Peak at <Peak (x):@>
#
# Result:
# Number of Results:            1
# Parameter: "Peak (x)" = 86.384399286228472 eV +- 0.017733300122961364
# Parameter: "Peak (y)" = 380.36196289963664 cps
# Parameter: "Fit Start" = 1166.7002409638555 eV
# Parameter: "Fit End" = 1168.0014457831326 eV
#
# Result Name:                  Peak Location
# Number of Curves:             1
#
# Curve:                        0
# Values/Curve:                 55
#
86.939759  277.37323
86.915663  284.04053
86.891566  290.75939
86.86747  297.49941
86.843373  304.2284
86.819277  310.9127
86.795181  317.51738
86.771084  324.00657
86.746988  330.34371
86.722892  336.49197
86.698795  342.4145
86.674699  348.07487
86.650602  353.43739
86.626506  358.46753
86.60241  363.13222
86.578313  367.40027
86.554217  371.2427
86.53012  374.63305
86.506024  377.54771
86.481928  379.96617
86.457831  381.87127
86.433735  383.2494
86.409639  384.09068
86.385542  384.38905
86.361446  384.14236
86.337349  383.35238
86.313253  382.0248
86.289157  380.16916
86.26506  377.79872
86.240964  374.9303
86.216867  371.58411
86.192771  367.78347
86.168675  363.55458
86.144578  358.92621
86.120482  353.92935
86.096386  348.59689
86.072289  342.96326
86.048193  337.06404
86.024096  330.93562
86  324.61481
85.975904  318.13847
85.951807  311.54319
85.927711  304.86492
85.903614  298.1387
85.879518  291.39833
85.855422  284.67612
85.831325  278.00268
85.807229  271.40669
85.783133  264.91475
85.759036  258.55123
85.73494  252.33821
85.710843  246.29536
85.686747  240.43991
85.662651  234.78671
85.638554  229.34815

# Region:                       Ti 2p
# Spectrum ID:                  8
# Acquisition Date:             02/05/25 15:32:17 UTC-5
# Analysis Method:              XPS
# Analyzer:                     PHOIBOS MCD5 Analyzer
# Analyzer Lens:                LargeArea:1.5kV
# Analyzer Slit:                8:7dia.\B:open
# Scan Mode:                    FixedAnalyzerTransmission
# Curves/Scan:                  1
# Values/Curve:                 167
# Dwell Time:                   0.15
# Excitation Energy:            1253.64
# Binding Energy:               463
# Pass Energy:                  10
# Bias Voltage:                 90
# Detector Voltage:             3000
# Eff. Workfunction:            4.543
# Source:                       X-Ray Dummy
# Comment:                      
#
# Cycle: 0
# Number of Scans: 3
#
# Cycle: 0, Curve: 0
# Acquisition Date:             02/05/25 15:32:17 UTC-5
#
# ColumnLabels:                 energy counts/s
#
463  296.20792
462.9759  319.03893
462.95181  312.83248
462.92771  353.24643
462.90361  329.00699
462.87952  343.69346
462.85542  322.62116
462.83133  292.37139
462.80723  308.00127
462.78313  330.55428
462.75904  319.72902
462.73494  353.31686
462.71084  347.70253
462.68675  353.38186
462.66265  391.37362
462.63855  378.09517
462.61446  328.73712
462.59036  345.35581
462.56627  410.72243
462.54217  392.15825
462.51807  392.94994
462.49398  446.93664
462.46988  395.48833
462.44578  413.88636
462.42169  431.29409
462.39759  412.52287
462.37349  439.09206
462.3494  445.85161
462.3253  472.30209
462.3012  498.20161
462.27711  484.15892
462.25301  533.73707
462.22892  522.60087
462.20482  487.41735
462.18072  507.81429
462.15663  573.66963
462.13253  594.8892
462.10843  566.90457
462.08434  639.04919
462.06024  563.10927
462.03614  621.05529
462.01205  716.11674
461.98795  713.72736
461.96386  680.90143
461.93976  737.78624
461.91566  726.80413
461.89157  742.00349
461.86747  755.6661
461.84337  774.02433
461.81928  788.37377
461.79518  824.65928
461.77108  878.88434
461.74699  832.54996
461.72289  892.50463
461.6988  925.48816
461.6747  933.44582
461.6506  883.04869
461.62651  897.8817
461.60241  865.8681
461.57831  926.36897
461.55422  935.8258
461.53012  997.63401
461.50602  918.72436
461.48193  1007.6952
461.45783  979.6164
461.43373  990.63319
461.40964  976.44385
461.38554  984.97991
461.36145  997.15734
461.33735  1011.7889
461.31325  969.82668
461.28916  939.34014
461.26506  903.12269
461.24096  993.51041
461.21687  979.25541
461.19277  901.92755
461.16867  879.75213
461.14458  927.03044
461.12048  878.69738
461.09639  818.27971
461.07229  848.53287
461.04819  847.2282
461.0241  786.3449
461  797.97222
460.9759  775.03187
460.95181  777.31751
460.92771  769.65172
460.90361  738.24955
460.87952  705.36369
460.85542  687.59759
460.83133  708.97453
460.80723  723.72008
460.78313  625.91109
460.75904  587.30832
460.73494  577.49475
460.71084  604.94837
460.68675  558.37743
460.66265  531.83796
460.63855  510.38677
460.61446  506.43315
460.59036  511.2098
460.56627  482.15703
460.54217  483.45628
460.51807  471.97807
460.49398  461.87152
460.46988  416.34542
460.44578  418.11353
460.42169  410.20345
460.39759  397.46375
460.37349  386.00391
460.3494  370.45339
460.3253  376.37429
460.3012  375.59898
460.27711  420.39105
460.25301  384.15182
460.22892  357.88019
460.20482  325.14606
460.18072  313.66721
460.15663  314.27064
460.13253  307.03346
460.10843  331.42596
460.08434  326.92332
460.06024  330.59357
460.03614  314.24111
460.01205  286.3082
459.98795  274.7044
459.96386  310.56267
459.93976  311.81986
459.91566  307.02104
459.89157  275.19818
459.86747  274.47989
459.84337  301.4435
459.81928  257.68396
459.79518  265.65455
459.77108  256.93164
459.74699  306.63168
459.72289  250.83142
459.6988  273.26675
459.6747  277.32966
459.6506  258.32391
459.62651  250.93156
459.60241  268.31525
459.57831  267.14751
459.55422  270.18431
459.53012  252.99897
459.50602  259.37472
459.48193  250.34476
459.45783  241.03486
459.43373  237.99823
459.40964  235.97513
459.38554  235.96043
459.36145  235.61455
459.33735  234.47726
459.31325  239.5066
459.28916  260.68879
459.26506  233.35092
459.24096  213.18742
459.21687  245.49439
459.19277  211.14586
459.16867  220.53826
459.14458  236.92908
459.12048  239.51006
459.09639  275.47019
459.07229  232.17762
459.04819  258.57366
459.0241  246.57211
459  229.85335

# Operation:                    Peak Location
# Range Start:                  463.336
# Range End:                    455.266
# Parameter: "Peak-Annotation" = Peak at <Peak (x):@>
#
# Result:
# Number of Results:            1
# Parameter: "Peak (x)" = 461.41085014794396 eV +- 0.017253650925867677
# Parameter: "Peak (y)" = 987.02740084552363 cps
# Parameter: "Fit Start" = 791.89301204819287 eV
# Parameter: "Fit End" = 792.71228915662664 eV
#
# Result Name:                  Peak Location
# Number of Curves:             1
#
# Curve:                        0
# Values/Curve:                 35
#
461.74699  846.93346
461.72289  862.0989
461.6988  877.03607
461.6747  891.58355
461.6506  905.57619
461.62651  918.8481
461.60241  931.23588
461.57831  942.58197
461.55422  952.73788
461.53012  961.56751
461.50602  968.95009
461.48193  974.78299
461.45783  978.98405
461.43373  981.49355
461.40964  982.27558
461.38554  981.31891
461.36145  978.63728
461.33735  974.26902
461.31325  968.27622
461.28916  960.74316
461.26506  951.77442
461.24096  941.49243
461.21687  930.0347
461.19277  917.55075
461.16867  904.19891
461.14458  890.14296
461.12048  875.54886
461.09639  860.58153
461.07229  845.40183
461.04819  830.16384
461.0241  815.01241
461  800.08113
460.9759  785.49063
460.95181  771.34741
460.92771  757.74299

# Region:                       O 1s
# Spectrum ID:                  9
# Acquisition Date:             02/05/25 15:34:23 UTC-5
# Analysis Method:              XPS
# Analyzer:                     PHOIBOS MCD5 Analyzer
# Analyzer Lens:                LargeArea:1.5kV
# Analyzer Slit:                8:7dia.\B:open
# Scan Mode:                    FixedAnalyzerTransmission
# Curves/Scan:                  1
# Values/Curve:                 201
# Dwell Time:                   0.15
# Excitation Energy:            1253.64
# Binding Energy:               535
# Pass Energy:                  10
# Bias Voltage:                 90
# Detector Voltage:             3000
# Eff. Workfunction:            4.543
# Source:                       X-Ray Dummy
# Comment:                      
#
# Cycle: 0
# Number of Scans: 3
#
# Cycle: 0, Curve: 0
# Acquisition Date:             02/05/25 15:34:23 UTC-5
#
# ColumnLabels:                 energy counts/s
#
535  511.60798
534.975  524.84482
534.95  594.60206
534.925  528.6821
534.9  546.20089
534.875  534.89816
534.85  563.81823
534.825  549.65982
534.8  588.82793
534.775  494.70952
534.75  546.74744
534.725  592.52816
534.7  589.64879
534.675  542.28904
534.65  601.42374
534.625  544.06722
534.6  533.86564
534.575  570.55084
534.55  552.22411
534.525  552.22068
534.5  588.68586
534.475  552.2347
534.45  540.56806
534.425  581.22059
534.4  551.02116
534.375  585.18678
534.35  598.51358
534.325  614.36927
534.3  598.32592
534.275  600.59811
534.25  570.04041
534.225  577.203
534.2  584.23556
534.175  634.10777
534.15  581.94956
534.125  603.07049
534.1  627.93317
534.075  680.46803
534.05  658.90875
534.025  606.33515
534  606.33887
533.975  639.15882
533.95  663.70465
533.925  631.31504
533.9  687.50069
533.875  753.73961
533.85  684.5691
533.825  667.71488
533.8  698.81015
533.775  657.01663
533.75  728.46388
533.725  745.58761
533.7  762.97173
533.675  721.96624
533.65  765.8758
533.625  769.28918
533.6  785.76522
533.575  823.63492
533.55  842.61782
533.525  813.51923
533.5  856.76793
533.475  863.86004
533.45  876.56044
533.425  928.49717
533.4  991.6775
533.375  995.81085
533.35  912.72307
533.325  982.18578
533.3  1010.6023
533.275  993.02615
533.25  1071.8078
533.225  1118.1808
533.2  1055.8433
533.175  1116.7245
533.15  1119.3414
533.125  1070.9661
533.1  1121.3034
533.075  1170.9281
533.05  1213.3052
533.025  1142.4407
533  1165.2355
532.975  1122.5282
532.95  1227.3329
532.925  1267.2483
532.9  1250.3306
532.875  1284.9807
532.85  1199.0226
532.825  1231.4732
532.8  1196.0921
532.775  1219.2776
532.75  1198.4073
532.725  1204.4555
532.7  1257.3732
532.675  1260.6216
532.65  1273.8195
532.625  1261.0951
532.6  1294.1199
532.575  1250.6528
532.55  1215.256
532.525  1157.285
532.5  1146.6562
532.475  1163.277
532.45  1214.8538
532.425  1210.1496
532.4  1174.6864
532.375  1129.4826
532.35  1088.6911
532.325  1109.4025
532.3  1123.5254
532.275  1138.5726
532.25  1123.4284
532.225  1058.6886
532.2  1000.2362
532.175  922.52156
532.15  974.8196
532.125  954.18292
532.1  881.69578
532.075  914.99932
532.05  969.43849
532.025  845.89092
532  830.54133
531.975  852.52968
531.95  899.93684
531.925  797.82782
531.9  790.76559
531.875  790.20124
531.85  785.08286
531.825  751.74563
531.8  710.11048
531.775  721.01702
531.75  712.87964
531.725  642.91848
531.7  711.41529
531.675  646.67905
531.65  597.70666
531.625  606.65428
531.6  581.94243
531.575  565.69621
531.55  548.81961
531.525  586.21236
531.5  610.93398
531.475  591.4506
531.45  597.54297
531.425  596.91048
531.4  586.94184
531.375  517.8214
531.35  503.33932
531.325  473.01704
531.3  518.04572
531.275  472.47074
531.25  512.06755
531.225  419.51263
531.2  444.16649
531.175  428.40949
531.15  414.18419
531.125  473.22854
531.1  441.14624
531.075  458.85252
531.05  473.45218
531.025  444.2226
531  434.68724
530.975  460.29658
530.95  455.18681
530.925  439.55501
530.9  476.26175
530.875  450.10015
530.85  401.21974
530.825  408.35948
530.8  431.67057
530.775  412.61328
530.75  368.75581
530.725  436.52288
530.7  476.39904
530.675  416.14148
530.65  442.34332
530.625  422.86903
530.6  368.30611
530.575  436.8916
530.55  446.67157
530.525  427.97377
530.5  419.28042
530.475  418.05997
530.45  453.9263
530.425  401.77348
530.4  395.88436
530.375  425.13385
530.35  452.42604
530.325  409.8736
530.3  372.88316
530.275  398.85359
530.25  417.72607
530.225  394.21759
530.2  399.68074
530.175  410.0342
530.15  388.50854
530.125  402.91402
530.1  398.07566
530.075  349.80647
530.05  343.5912
530.025  381.58047
530  392.46616

# Operation:                    Peak Location
# Range Start:                  537.534
# Range End:                    523.659
# Parameter: "Peak-Annotation" = Peak at <Peak (x):@>
#
# Result:
# Number of Results:            1
# Parameter: "Peak (x)" = 532.72317065096456 eV +- 0.027219603560690288
# Parameter: "Peak (y)" = 1219.8161824465044 cps
# Parameter: "Fit Start" = 720.59000000000015 eV
# Parameter: "Fit End" = 721.49000000000012 eV
#
# Result Name:                  Peak Location
# Number of Curves:             1
#
# Curve:                        0
# Values/Curve:                 37
#
533.05  1156.0466
533.025  1169.1523
533  1181.236
532.975  1192.2926
532.95  1202.3175
532.925  1211.3067
532.9  1219.2562
532.875  1226.1628
532.85  1232.0237
532.825  1236.8364
532.8  1240.5988
532.775  1243.3094
532.75  1244.9671
532.725  1245.5711
532.7  1245.1213
532.675  1243.6178
532.65  1241.0612
532.625  1237.4526
532.6  1232.7936
532.575  1227.0859
532.55  1220.3322
532.525  1212.5351
532.5  1203.6979
532.475  1193.8243
532.45  1182.9184
532.425  1170.9847
532.4  1158.0282
532.375  1144.0543
532.35  1129.0687
532.325  1113.0777
532.3  1096.0879
532.275  1078.1063
532.25  1059.1403
532.225  1039.1976
532.2  1018.2866
532.175  996.41566
532.15  973.59387

# Region:                       Au 4f
# Spectrum ID:                  50
# Acquisition Date:             02/05/25 15:36:14 UTC-5
# Analysis Method:              XPS
# Analyzer:                     PHOIBOS MCD5 Analyzer
# Analyzer Lens:                LargeArea:1.5kV
# Analyzer Slit:                8:7dia.\B:open
# Scan Mode:                    FixedAnalyzerTransmission
# Curves/Scan:                  1
# Values/Curve:                 167
# Dwell Time:                   0.15
# Excitation Energy:            1253.64
# Binding Energy:               88
# Pass Energy:                  10
# Bias Voltage:                 90
# Detector Voltage:             3000
# Eff. Workfunction:            4.543
# Source:                       X-Ray Dummy
# Comment:                      
#
# Cycle: 0
# Number of Scans: 3
#
# Cycle: 0, Curve: 0
# Acquisition Date:             02/05/25 15:36:14 UTC-5
#
# ColumnLabels:                 energy counts/s
#
88  148.75411
87.975904  145.09147
87.951807  122.60786
87.927711  157.16461
87.903614  168.03176
87.879518  148.9817
87.855422  135.13273
87.831325  175.49384
87.807229  169.13306
87.783133  147.36211
87.759036  142.49128
87.73494  142.88739
87.710843  167.27618
87.686747  167.87465
87.662651  170.17075
87.638554  165.45599
87.614458  185.97864
87.590361  189.64613
87.566265  163.05165
87.542169  172.30334
87.518072  176.37437
87.493976  183.17101
87.46988  184.91227
87.445783  218.6075
87.421687  202.65152
87.39759  204.79411
87.373494  182.86711
87.349398  207.11208
87.325301  199.68126
87.301205  189.90668
87.277108  221.66421
87.253012  195.67427
87.228916  212.32808
87.204819  262.36975
87.180723  215.99812
87.156627  228.77928
87.13253  253.87155
87.108434  266.04228
87.084337  260.43684
87.060241  268.65012
87.036145  256.04483
87.012048  273.34294
86.987952  245.68545
86.963855  253.7371
86.939759  279.15706
86.915663  290.64622
86.891566  314.65801
86.86747  264.14407
86.843373  302.01104
86.819277  324.87158
86.795181  291.26072
86.771084  275.68532
86.746988  330.16056
86.722892  345.34717
86.698795  354.76502
86.674699  383.13368
86.650602  335.50814
86.626506  405.7728
86.60241  410.47439
86.578313  363.67434
86.554217  359.56362
86.53012  332.13854
86.506024  369.65297
86.481928  382.14717
86.457831  387.27312
86.433735  328.15603
86.409639  391.28884
86.385542  456.76434
86.361446  407.22357
86.337349  373.27454
86.313253  387.38747
86.289157  399.41937
86.26506  372.9559
86.240964  383.16603
86.216867  409.92111
86.192771  414.41941
86.168675  373.74653
86.144578  350.75682
86.120482  389.51384
86.096386  379.38484
86.072289  323.54898
86.048193  334.52189
86.024096  339.91436
86  304.09141
85.975904  326.94097
85.951807  310.29304
85.927711  272.22435
85.903614  300.14549
85.879518  292.69815
85.855422  295.74449
85.831325  263.36488
85.807229  255.27403
85.783133  225.02982
85.759036  255.60429
85.73494  214.85822
85.710843  234.62963
85.686747  240.77236
85.662651  271.82499
85.638554  227.22176
85.614458  215.92653
85.590361  216.91011
85.566265  182.08737
85.542169  185.36215
85.518072  205.699
85.493976  186.83288
85.46988  200.16783
85.445783  170.20759
85.421687  181.16226
85.39759  180.52572
85.373494  153.42082
85.349398  190.17757
85.325301  130.31483
85.301205  157.08689
85.277108  132.97915
85.253012  151.42215
85.228916  118.45127
85.204819  130.8954
85.180723  133.95744
85.156627  147.71742
85.13253  142.02521
85.108434  137.2872
85.084337  142.97301
85.060241  129.75807
85.036145  122.31546
85.012048  119.06427
84.987952  139.71375
84.963855  136.95326
84.939759  151.58688
84.915663  138.84633
84.891566  161.43423
84.86747  137.28115
84.843373  141.73921
84.819277  133.71957
84.795181  117.02112
84.771084  113.95146
84.746988  127.40169
84.722892  117.40279
84.698795  127.5885
84.674699  138.99768
84.650602  117.11922
84.626506  123.76337
84.60241  95.1288
84.578313  113.16971
84.554217  111.60746
84.53012  134.51092
84.506024  139.81581
84.481928  138.42756
84.457831  141.94155
84.433735  91.997237
84.409639  105.06427
84.385542  125.07705
84.361446  112.33331
84.337349  90.147951
84.313253  108.3875
84.289157  126.7359
84.26506  127.50926
84.240964  138.6276
84.216867  121.33991
84.192771  132.11492
84.168675  125.3014
84.144578  124.92525
84.120482  112.07923
84.096386  131.27539
84.072289  114.6094
84.048193  91.315555
84.024096  109.7148
84  107.81967

# Operation:                    Peak Location
# Range Start:                  88.4421
# Range End:                    83.4148
# Parameter: "Peak-Annotation" = Peak at <Peak (x):@>
#
# Result:
# Number of Results:            1
# Parameter: "Peak (x)" = 86.392526688377302 eV +- 0.013635725795030737
# Parameter: "Peak (y)" = 392.37316530551482 cps
# Parameter: "Fit Start" = 1166.5556626506025 eV
# Parameter: "Fit End" = 1167.9532530120482 eV
#
# Result Name:                  Peak Location
# Number of Curves:             1
#
# Curve:                        0
# Values/Curve:                 59
#
87.084337  233.15284
87.060241  239.65759
87.036145  246.36438
87.012048  253.25353
86.987952  260.30273
86.963855  267.48703
86.939759  274.77897
86.915663  282.14866
86.891566  289.56398
86.86747  296.99071
86.843373  304.39285
86.819277  311.73279
86.795181  318.97167
86.771084  326.06968
86.746988  332.9864
86.722892  339.68121
86.698795  346.11363
86.674699  352.24378
86.650602  358.03271
86.626506  363.44289
86.60241  368.43855
86.578313  372.98613
86.554217  377.0546
86.53012  380.61584
86.506024  383.64495
86.481928  386.12058
86.457831  388.02512
86.433735  389.34495
86.409639  390.0706
86.385542  390.19682
86.361446  389.72272
86.337349  388.6517
86.313253  386.99148
86.289157  384.75395
86.26506  381.95507
86.240964  378.61464
86.216867  374.75611
86.192771  370.40627
86.168675  365.59498
86.144578  360.35477
86.120482  354.72054
86.096386  348.72914
86.072289  342.41894
86.048193  335.8295
86.024096  329.0011
86  321.97434
85.975904  314.78977
85.951807  307.48751
85.927711  300.10685
85.903614  292.68597
85.879518  285.26158
85.855422  277.86867
85.831325  270.54028
85.807229  263.30725
85.783133  256.19808
85.759036  249.23879
85.73494  242.45281
85.710843  235.86093
85.686747  229.48125

# Region:                       Ti 2p
# Spectrum ID:                  51
# Acquisition Date:             02/05/25 15:38:05 UTC-5
# Analysis Method:              XPS
# Analyzer:                     PHOIBOS MCD5 Analyzer
# Analyzer Lens:                LargeArea:1.5kV
# Analyzer Slit:                8:7dia.\B:open
# Scan Mode:                    FixedAnalyzerTransmission
# Curves/Scan:                  1
# Values/Curve:                 167
# Dwell Time:                   0.15
# Excitation Energy:            1253.64
# Binding Energy:               463
# Pass Energy:                  10
# Bias Voltage:                 90
# Detector Voltage:             3000
# Eff. Workfunction:            4.543
# Source:                       X-Ray Dummy
# Comment:                      
#
# Cycle: 0
# Number of Scans: 3
#
# Cycle: 0, Curve: 0
# Acquisition Date:             02/05/25 15:38:05 UTC-5
#
# ColumnLabels:                 energy counts/s
#
463  332.95192
462.9759  299.89003
462.95181  295.69586
462.92771  317.33087
462.90361  312.35638
462.87952  361.07267
462.85542  362.73752
462.83133  311.00721
462.80723  325.08828
462.78313  318.44922
462.75904  335.85657
462.73494  371.70302
462.71084  363.72937
462.68675  386.66054
462.66265  363.02654
462.63855  353.26126
462.61446  403.26537
462.59036  418.22835
462.56627  422.03797
462.54217  401.34415
462.51807  395.22043
462.49398  407.76055
462.46988  420.80792
462.44578  399.23533
462.42169  425.63919
462.39759  480.24724
462.37349  464.02527
462.3494  465.44981
462.3253  508.47506
462.3012  509.11661
462.27711  483.89693
462.25301  519.44252
462.22892  530.98667
462.20482  516.55093
462.18072  556.05053
462.15663  609.39743
462.13253  546.89195
462.10843  657.90486
462.08434  585.84771
462.06024  632.74555
462.03614  668.26763
462.01205  646.7735
461.98795  659.67704
461.96386  722.84004
461.93976  691.53244
461.91566  769.30727
461.89157  793.13695
461.86747  782.68831
461.84337  801.00532
461.81928  835.19476
461.79518  834.22763
461.77108  834.95705
461.74699  858.91449
461.72289  897.35177
461.6988  914.1925
461.6747  858.88883
461.6506  969.60951
461.62651  923.35324
461.60241  921.63881
461.57831  950.13145
461.55422  981.00031
461.53012  958.64086
461.50602  931.09673
461.48193  940.64628
461.45783  991.02421
461.43373  973.89419
461.40964  1053.2642
461.38554  1010.3276
461.36145  974.52176
461.33735  991.26239
461.31325  945.48287
461.28916  938.99877
461.26506  943.32455
461.24096  968.03129
461.21687  922.56348
461.19277  919.89965
461.16867  931.14712
461.14458  880.78688
461.12048  892.39725
461.09639  871.13307
461.07229  854.11725
461.04819  885.32085
461.0241  855.87316
461  793.48347
460.9759  794.00808
460.95181  774.9002
460.92771  752.20827
460.90361  729.46329
460.87952  708.01998
460.85542  697.44322
460.83133  661.07618
460.80723  684.36577
460.78313  644.33476
460.75904  612.97197
460.73494  605.08246
460.71084  628.3367
460.68675  605.55346
460.66265  541.29783
460.63855  562.01165
460.61446  578.95213
460.59036  548.29013
460.56627  507.61032
460.54217  496.6058
460.51807  468.92828
460.49398  462.5288
460.46988  446.49497
460.44578  445.07333
460.42169  416.68167
460.39759  422.32654
460.37349  417.55849
460.3494  400.55996
460.3253  368.91317
460.3012  338.10094
460.27711  369.9961
460.25301  368.8047
460.22892  345.50141
460.20482  337.72922
460.18072  350.5178
460.15663  322.69915
460.13253  285.12554
460.10843  324.62968
460.08434  337.10213
460.06024  331.69111
460.03614  307.08155
460.01205  313.98208
459.98795  284.91568
459.96386  278.24675
459.93976  263.52309
459.91566  303.27192
459.89157  250.64603
459.86747  276.14228
459.84337  264.45817
459.81928  265.05845
459.79518  262.16985
459.77108  274.57467
459.74699  259.69222
459.72289  267.24797
459.6988  262.53389
459.6747  258.50653
459.6506  288.3642
459.62651  228.5881
459.60241  246.9273
459.57831  244.96028
459.55422  310.14978
459.53012  253.81091
459.50602  216.5742
459.48193  231.9388
459.45783  243.92355
459.43373  283.94945
459.40964  255.91422
459.38554  231.99094
459.36145  241.56388
459.33735  251.66614
459.31325  239.17697
459.28916  228.09236
459.26506  222.92314
459.24096  223.45273
459.21687  227.20376
459.19277  259.54709
459.16867  218.38562
459.14458  236.69136
459.12048  235.74897
459.09639  278.93491
459.07229  243.11232
459.04819  218.39005
459.0241  245.51981
459  192.51369

# Operation:                    Peak Location
# Range Start:                  463.336
# Range End:                    455.266
# Parameter: "Peak-Annotation" = Peak at <Peak (x):@>
#
# Result:
# Number of Results:            1
# Parameter: "Peak (x)" = 461.41783816671534 eV +- 0.013014111045835764
# Parameter: "Peak (y)" = 1012.9040993262113 cps
# Parameter: "Fit Start" = 791.72433734939773 eV
# Parameter: "Fit End" = 792.73638554216882 eV
#
# Result Name:                  Peak Location
# Number of Curves:             1
#
# Curve:                        0
# Values/Curve:                 43
#
461.91566  756.19137
461.89157  773.13026
461.86747  789.94127
461.84337  806.54331
461.81928  822.8533
461.79518  838.78684
461.77108  854.25888
461.74699  869.18452
461.72289  883.47971
461.6988  897.06209
461.6747  909.85172
461.6506  921.77188
461.62651  932.74984
461.60241  942.71761
461.57831  951.61259
461.55422  959.37827
461.53012  965.96482
461.50602  971.32962
461.48193  975.43769
461.45783  978.26212
461.43373  979.78432
461.40964  979.99426
461.38554  978.89056
461.36145  976.48049
461.33735  972.77992
461.31325  967.81314
461.28916  961.61258
461.26506  954.21847
461.24096  945.67839
461.21687  936.04678
461.19277  925.38436
461.16867  913.75747
461.14458  901.23742
461.12048  887.89972
461.09639  873.82337
461.07229  859.09004
461.04819  843.78334
461.0241  827.98797
461  811.78901
460.9759  795.27115
460.95181  778.51797
460.92771  761.61126
460.90361  744.6304

# Region:                       O 1s
# Spectrum ID:                  52
# Acquisition Date:             02/05/25 15:40:11 UTC-5
# Analysis Method:              XPS
# Analyzer:                     PHOIBOS MCD5 Analyzer
# Analyzer Lens:                LargeArea:1.5kV
# Analyzer Slit:                8:7dia.\B:open
# Scan Mode:                    FixedAnalyzerTransmission
# Curves/Scan:                  1
# Values/Curve:                 201
# Dwell Time:                   0.15
# Excitation Energy:            1253.64
# Binding Energy:               535
# Pass Energy:                  10
# Bias Voltage:                 90
# Detector Voltage:             3000
# Eff. Workfunction:            4.543
# Source:                       X-Ray Dummy
# Comment:                      
#
# Cycle: 0
# Number of Scans: 3
#
# Cycle: 0, Curve: 0
# Acquisition Date:             02/05/25 15:40:11 UTC-5
#
# ColumnLabels:                 energy counts/s
#
535  573.99475
534.975  502.99998
534.95  559.35788
534.925  542.47989
534.9  549.33399
534.875  578.95948
534.85  514.42428
534.825  520.73684
534.8  558.97779
534.775  563.4682
534.75  540.81635
534.725  584.09715
534.7  551.31765
534.675  574.59838
534.65  583.34516
534.625  592.96168
534.6  583.10823
534.575  538.48336
534.55  563.79763
534.525  613.96269
534.5  559.58897
534.475  647.9111
534.45  634.26281
534.425  582.26829
534.4  599.50763
534.375  612.82239
534.35  591.11802
534.325  601.72833
534.3  631.68821
534.275  640.69585
534.25  606.93525
534.225  544.95098
534.2  570.53538
534.175  619.13741
534.15  651.04545
534.125  620.62348
534.1  631.04139
534.075  621.15385
534.05  610.34837
534.025  621.29025
534  641.42298
533.975  572.23228
533.95  679.0021
533.925  709.67865
533.9  702.21751
533.875  638.585
533.85  642.87325
533.825  672.53071
533.8  676.41227
533.775  719.25282
533.75  697.18987
533.725  777.10282
533.7  766.90048
533.675  778.91244
533.65  777.73419
533.625  819.69102
533.6  782.41018
533.575  834.81012
533.55  881.98454
533.525  794.7763
533.5  860.34174
533.475  900.58762
533.45  873.90463
533.425  843.40794
533.4  870.04159
533.375  886.8008
533.35  936.00375
533.325  966.29812
533.3  1019.5543
533.275  1001.446
533.25  1026.0558
533.225  1033.9405
533.2  1026.7447
533.175  1061.4961
533.15  1028.5674
533.125  1036.1762
533.1  1055.2226
533.075  1182.0343
533.05  1113.8679
533.025  1142.7376
533  1171.1972
532.975  1142.3895
532.95  1163.5112
532.925  1133.2476
532.9  1265.1878
532.875  1271.6639
532.85  1233.3673
532.825  1256.7535
532.8  1320.2222
532.775  1259.3339
532.75  1247.1054
532.725  1248.6868
532.7  1205.8353
532.675  1153.9497
532.65  1276.7567
532.625  1206.1188
532.6  1298.1153
532.575  1262.562
532.55  1184.4115
532.525  1291.9873
532.5  1253.0058
532.475  1249.407
532.45  1152.7788
532.425  1223.5304
532.4  1148.9746
532.375  1173.3022
532.35  1159.9124
532.325  1193.994
532.3  1174.1486
532.275  1047.493
532.25  1032.5568
532.225  1005.3438
532.2  1037.776
532.175  1032.7116
532.15  952.72336
532.125  1017.794
532.1  927.50867
532.075  897.17455
532.05  893.89103
532.025  852.35964
532  897.71493
531.975  855.52244
531.95  850.12494
531.925  786.30686
531.9  762.21125
531.875  765.64415
531.85  732.24536
531.825  730.63698
531.8  690.42216
531.775  747.7918
531.75  734.76435
531.725  736.22516
531.7  663.13208
531.675  644.04622
531.65  652.2149
531.625  595.91542
531.6  626.57949
531.575  579.03366
531.55  565.09888
531.525  567.29619
531.5  527.8668
531.475  571.83121
531.45  506.48989
531.425  508.28592
531.4  543.63222
531.375  531.65532
531.35  518.3522
531.325  507.57676
531.3  511.17568
531.275  505.39632
531.25  497.47071
531.225  498.29876
531.2  531.25267
531.175  484.01074
531.15  491.75105
531.125  448.05943
531.1  461.64958
531.075  462.03203
531.05  470.13926
531.025  441.37818
531  457.66441
530.975  445.6142
530.95  463.58358
530.925  451.10642
530.9  439.01058
530.875  411.01923
530.85  431.13885
530.825  479.40895
530.8  425.66462
530.775  376.58582
530.75  437.14147
530.725  426.29818
530.7  443.90365
530.675  431.0019
530.65  429.14837
530.625  402.46789
530.6  390.35334
530.575  401.97143
530.55  433.22563
530.525  417.83425
530.5  412.31721
530.475  442.14826
530.45  428.21814
530.425  431.02074
530.4  457.56441
530.375  439.85477
530.35  391.92963
530.325  383.10004
530.3  426.132
530.275  414.93683
530.25  425.03224
530.225  464.11602
530.2  455.86115
530.175  417.7392
530.15  463.04464
530.125  429.67369
530.1  395.72041
530.075  361.92532
530.05  398.96572
530.025  407.51077
530  412.2292

# Operation:                    Peak Location
# Range Start:                  537.534
# Range End:                    523.659
# Parameter: "Peak-Annotation" = Peak at <Peak (x):@>
#
# Result:
# Number of Results:            1
# Parameter: "Peak (x)" = 532.69595825951467 eV +- 0.014001946767961784
# Parameter: "Peak (y)" = 1214.7935224438854 cps
# Parameter: "Fit Start" = 720.34000000000015 eV
# Parameter: "Fit End" = 721.49000000000012 eV
#
# Result Name:                  Peak Location
# Number of Curves:             1
#
# Curve:                        0
# Values/Curve:                 47
#
533.3  967.57294
533.275  983.74815
533.25  1000.209
533.225  1016.884
533.2  1033.6961
533.175  1050.5623
533.15  1067.3948
533.125  1084.1018
533.1  1100.5876
533.075  1116.7543
533.05  1132.502
533.025  1147.7303
533  1162.3392
532.975  1176.2299
532.95  1189.3063
532.925  1201.4759
532.9  1212.651
532.875  1222.7496
532.85  1231.6965
532.825  1239.424
532.8  1245.8733
532.775  1250.9947
532.75  1254.7483
532.725  1257.1051
532.7  1258.0464
532.675  1257.5648
532.65  1255.6643
532.625  1252.3596
532.6  1247.6766
532.575  1241.6517
532.55  1234.3315
532.525  1225.7719
532.5  1216.0378
532.475  1205.2021
532.45  1193.3447
532.425  1180.5516
532.4  1166.9138
532.375  1152.5265
532.35  1137.4876
532.325  1121.8968
532.3  1105.8546
532.275  1089.4612
532.25  1072.8151
532.225  1056.0129
532.2  1039.1478
532.175  1022.3089
532.15  1005.5808

# Region:                       Au 4f
# Spectrum ID:                  53
# Acquisition Date:             02/05/25 15:42:02 UTC-5
# Analysis Method:              XPS
# Analyzer:                     PHOIBOS MCD5 Analyzer
# Analyzer Lens:                LargeArea:1.5kV
# Analyzer Slit:                8:7dia.\B:open
# Scan Mode:                    FixedAnalyzerTransmission
# Curves/Scan:                  1
# Values/Curve:                 167
# Dwell Time:                   0.15
# Excitation Energy:            1253.64
# Binding Energy:               88
# Pass Energy:                  10
# Bias Voltage:                 90
# Detector Voltage:             3000
# Eff. Workfunction:            4.543
# Source:                       X-Ray Dummy
# Comment:                      
#
# Cycle: 0
# Number of Scans: 3
#
# Cycle: 0, Curve: 0
# Acquisition Date:             02/05/25 15:42:02 UTC-5
#
# ColumnLabels:                 energy counts/s
#
88  176.90176
87.975904  175.8177
87.951807  168.12718
87.927711  165.29028
87.903614  149.66499
87.879518  164.49245
87.855422  188.00434
87.831325  154.14199
87.807229  170.26851
87.783133  146.33197
87.759036  176.2518
87.73494  176.56123
87.710843  175.1747
87.686747  141.44305
87.662651  159.07755
87.638554  173.33985
87.614458  185.91865
87.590361  179.53842
87.566265  186.84415
87.542169  158.63229
87.518072  182.05455
87.493976  189.38219
87.46988  175.29576
87.445783  212.18051
87.421687  208.78053
87.39759  228.83651
87.373494  215.2022
87.349398  200.67999
87.325301  187.96413
87.301205  190.84551
87.277108  193.93595
87.253012  212.15593
87.228916  205.20634
87.204819  237.24214
87.180723  219.37642
87.156627  231.25932
87.13253  201.68926
87.108434  215.98621
87.084337  223.38512
87.060241  258.33179
87.036145  280.60165
87.012048  256.40194
86.987952  245.43909
86.963855  259.74406
86.939759  284.49971
86.915663  280.56565
86.891566  278.53883
86.86747  293.90846
86.843373  277.98118
86.819277  301.04781
86.795181  289.02085
86.771084  323.69987
86.746988  294.142
86.722892  298.02144
86.698795  327.16695
86.674699  324.03754
86.650602  387.66852
86.626506  351.89733
86.60241  362.12545
86.578313  372.19776
86.554217  411.70135
86.53012  421.95315
86.506024  411.79483
86.481928  410.16451
86.457831  395.45414
86.433735  409.67441
86.409639  398.34234
86.385542  384.25172
86.361446  401.92521
86.337349  345.3699
86.313253  348.53927
86.289157  327.81543
86.26506  345.03349
86.240964  356.5258
86.216867  372.81329
86.192771  387.78909
86.168675  361.09233
86.144578  357.21361
86.120482  377.18618
86.096386  318.94675
86.072289  330.89912
86.048193  352.26155
86.024096  342.90875
86  305.74924
85.975904  319.40885
85.951807  306.13914
85.927711  328.81684
85.903614  312.74625
85.879518  318.44131
85.855422  277.06801
85.831325  293.5335
85.807229  301.11714
85.783133  286.14453
85.759036  250.95898
85.73494  288.27099
85.710843  252.6618
85.686747  251.42874
85.662651  246.63431
85.638554  225.36539
85.614458  242.95329
85.590361  199.91308
85.566265  198.13164
85.542169  224.4802
85.518072  206.02912
85.493976  202.38082
85.46988  205.16238
85.445783  173.90085
85.421687  188.36705
85.39759  185.02436
85.373494  157.98585
85.349398  154.23777
85.325301  150.24098
85.301205  190.58765
85.277108  158.03048
85.253012  161.79854
85.228916  147.86372
85.204819  163.07638
85.180723  149.81823
85.156627  161.95519
85.13253  157.38484
85.108434  150.78053
85.084337  166.18705
85.060241  121.30705
85.036145  142.9263
85.012048  123.98123
84.987952  130.86858
84.963855  134.67156
84.939759  140.12369
84.915663  142.53432
84.891566  153.74317
84.86747  133.94079
84.843373  119.29825
84.819277  105.76445
84.795181  139.09
84.771084  149.3499
84.746988  128.81968
84.722892  130.16706
84.698795  123.01782
84.674699  105.61437
84.650602  132.03076
84.626506  146.97499
84.60241  123.56182
84.578313  105.86721
84.554217  133.91924
84.53012  134.04006
84.506024  121.71748
84.481928  127.70203
84.457831  137.51612
84.433735  127.37159
84.409639  120.52452
84.385542  102.46985
84.361446  97.515096
84.337349  107.74621
84.313253  112.4495
84.289157  115.60292
84.26506  125.56983
84.240964  119.98865
84.216867  104.75188
84.192771  115.84282
84.168675  97.693588
84.144578  109.78869
84.120482  142.71222
84.096386  103.00753
84.072289  110.95193
84.048193  95.393338
84.024096  116.31442
84  122.20015

# Operation:                    Peak Location
# Range Start:                  88.6409
# Range End:                    81.0288
# Parameter: "Peak-Annotation" = Peak at <Peak (x):@>
#
# Result:
# Number of Results:            1
# Parameter: "Peak (x)" = 86.363149743094937 eV +- 0.016432792228574723
# Parameter: "Peak (y)" = 379.97884908383213 cps
# Parameter: "Fit Start" = 1166.5797590361447 eV
# Parameter: "Fit End" = 1167.9773493975904 eV
#
# Result Name:                  Peak Location
# Number of Curves:             1
#
# Curve:                        0
# Values/Curve:                 59
#
87.060241  247.40657
87.036145  252.58233
87.012048  257.95516
86.987952  263.51057
86.963855  269.23152
86.939759  275.09845
86.915663  281.08929
86.891566  287.17952
86.86747  293.34233
86.843373  299.54872
86.819277  305.76771
86.795181  311.96654
86.771084  318.11098
86.746988  324.16557
86.722892  330.09396
86.698795  335.85927
86.674699  341.42448
86.650602  346.75274
86.626506  351.80788
86.60241  356.55472
86.578313  360.95952
86.554217  364.99039
86.53012  368.61764
86.506024  371.81417
86.481928  374.55577
86.457831  376.82148
86.433735  378.59381
86.409639  379.85899
86.385542  380.60714
86.361446  380.8324
86.337349  380.53299
86.313253  379.71127
86.289157  378.37367
86.26506  376.53063
86.240964  374.19647
86.216867  371.38918
86.192771  368.1302
86.168675  364.44416
86.144578  360.35854
86.120482  355.90338
86.096386  351.11086
86.072289  346.01493
86.048193  340.65094
86.024096  335.05519
86  329.26456
85.975904  323.31609
85.951807  317.24661
85.927711  311.09235
85.903614  304.88862
85.879518  298.66946
85.855422  292.4674
85.831325  286.31314
85.807229  280.23538
85.783133  274.26064
85.759036  268.41307
85.73494  262.7144
85.710843  257.18384
85.686747  251.83807
85.662651  246.69119

# Region:                       Ti 2p
# Spectrum ID:                  54
# Acquisition Date:             02/05/25 15:43:53 UTC-5
# Analysis Method:              XPS
# Analyzer:                     PHOIBOS MCD5 Analyzer
# Analyzer Lens:                LargeArea:1.5kV
# Analyzer Slit:                8:7dia.\B:open
# Scan Mode:                    FixedAnalyzerTransmission
# Curves/Scan:                  1
# Values/Curve:                 167
# Dwell Time:                   0.15
# Excitation Energy:            1253.64
# Binding Energy:               463
# Pass Energy:                  10
# Bias Voltage:                 90
# Detector Voltage:             3000
# Eff. Workfunction:            4.543
# Source:                       X-Ray Dummy
# Comment:                      
#
# Cycle: 0
# Number of Scans: 3
#
# Cycle: 0, Curve: 0
# Acquisition Date:             02/05/25 15:43:53 UTC-5
#
# ColumnLabels:                 energy counts/s
#
463  340.59415
462.9759  331.04882
462.95181  284.55435
462.92771  345.63577
462.90361  353.03161
462.87952  353.8655
462.85542  355.17002
462.83133  334.13725
462.80723  342.6714
462.78313  351.47689
462.75904  399.18998
462.73494  381.68717
462.71084  401.52077
462.68675  398.7549
462.66265  328.52049
462.63855  337.15204
462.61446  390.66653
462.59036  401.90625
462.56627  327.13866
462.54217  383.69901
462.51807  388.64257
462.49398  415.26545
462.46988  397.70553
462.44578  390.36594
462.42169  429.88304
462.39759  451.67785
462.37349  456.05566
462.3494  531.44394
462.3253  516.17324
462.3012  464.30043
462.27711  477.31657
462.25301  504.86193
462.22892  529.07849
462.20482  519.58121
462.18072  512.10705
462.15663  592.11973
462.13253  573.13774
462.10843  624.17043
462.08434  569.25245
462.06024  629.73309
462.03614  659.52722
462.01205  683.53869
461.98795  708.91529
461.96386  740.22206
461.93976  742.34943
461.91566  762.55474
461.89157  668.68696
461.86747  772.39708
461.84337  773.31982
461.81928  804.00852
461.79518  790.50404
461.77108  834.97106
461.74699  849.90853
461.72289  890.50939
461.6988  922.02937
461.6747  852.96999
461.6506  917.26631
461.62651  916.61553
461.60241  940.21037
461.57831  944.94974
461.55422  943.04563
461.53012  972.36175
461.50602  963.39418
461.48193  928.75867
461.45783  956.80071
461.43373  1024.5035
461.40964  1034.6836
461.38554  1019.4398
461.36145  1019.5996
461.33735  999.99123
461.31325  949.04431
461.28916  928.02756
461.26506  953.52845
461.24096  970.69679
461.21687  955.67231
461.19277  951.69336
461.16867  951.10244
461.14458  955.9866
461.12048  940.01593
461.09639  851.04199
461.07229  822.72239
461.04819  864.93882
461.0241  884.99822
461  837.59042
460.9759  791.54904
460.95181  813.91182
460.92771  806.33696
460.90361  740.50634
460.87952  718.92751
460.85542  745.27076
460.83133  705.18874
460.80723  655.85721
460.78313  634.0858
460.75904  642.76212
460.73494  645.55041
460.71084  564.04852
460.68675  632.17335
460.66265  594.94814
460.63855  535.97134
460.61446  551.19299
460.59036  527.7866
460.56627  521.11311
460.54217  487.55627
460.51807  505.458
460.49398  483.70778
460.46988  472.94942
460.44578  433.12326
460.42169  470.27433
460.39759  460.71595
460.37349  404.10154
460.3494  377.82479
460.3253  380.33804
460.3012  364.56311
460.27711  380.27305
460.25301  346.21413
460.22892  359.19091
460.20482  331.8914
460.18072  338.48397
460.15663  314.60016
460.13253  331.6548
460.10843  290.48018
460.08434  291.75906
460.06024  299.60774
460.03614  303.83004
460.01205  321.83182
459.98795  286.67645
459.96386  287.93199
459.93976  331.43222
459.91566  281.81752
459.89157  287.68038
459.86747  289.62347
459.84337  290.46786
459.81928  283.71732
459.79518  291.80303
459.77108  247.81341
459.74699  267.86869
459.72289  253.61735
459.6988  300.42882
459.6747  291.39037
459.6506  281.43963
459.62651  251.04196
459.60241  251.61114
459.57831  236.98536
459.55422  245.62295
459.53012  245.25231
459.50602  274.44083
459.48193  292.61538
459.45783  256.62059
459.43373  248.37621
459.40964  260.60433
459.38554  272.68442
459.36145  253.78142
459.33735  263.64579
459.31325  262.6195
459.28916  266.94033
459.26506  265.67837
459.24096  222.1709
459.21687  215.93062
459.19277  222.79547
459.16867  245.2519
459.14458  253.96923
459.12048  274.15775
459.09639  224.47081
459.07229  219.51568
459.04819  239.7242
459.0241  269.24818
459  260.2394

# Operation:                    Peak Location
# Range Start:                  463.336
# Range End:                    455.266
# Parameter: "Peak-Annotation" = Peak at <Peak (x):@>
#
# Result:
# Number of Results:            1
# Parameter: "Peak (x)" = 461.38208677728085 eV +- 0.011214631740500962
# Parameter: "Peak (y)" = 1026.1625448637351 cps
# Parameter: "Fit Start" = 791.74843373493991 eV
# Parameter: "Fit End" = 792.73638554216882 eV
#
# Result Name:                  Peak Location
# Number of Curves:             1
#
# Curve:                        0
# Values/Curve:                 42
#
461.89157  717.75309
461.86747  742.0114
461.84337  765.19689
461.81928  787.29472
461.79518  808.2907
461.77108  828.17134
461.74699  846.92381
461.72289  864.53597
461.6988  880.99642
461.6747  896.29446
461.6506  910.42014
461.62651  923.36425
461.60241  935.11833
461.57831  945.67471
461.55422  955.02647
461.53012  963.16748
461.50602  970.09239
461.48193  975.79665
461.45783  980.27652
461.43373  983.52905
461.40964  985.55209
461.38554  986.34432
461.36145  985.90522
461.33735  984.23507
461.31325  981.33497
461.28916  977.20683
461.26506  971.85337
461.24096  965.27811
461.21687  957.48537
461.19277  948.48026
461.16867  938.26869
461.14458  926.85735
461.12048  914.2537
461.09639  900.46598
461.07229  885.50319
461.04819  869.37505
461.0241  852.09207
461  833.66543
460.9759  814.10707
460.95181  793.42961
460.92771  771.64636
460.90361  748.77133

# Region:                       O 1s
# Spectrum ID:                  55
# Acquisition Date:             02/05/25 15:45:59 UTC-5
# Analysis Method:              XPS
# Analyzer:                     PHOIBOS MCD5 Analyzer
# Analyzer Lens:                LargeArea:1.5kV
# Analyzer Slit:                8:7dia.\B:open
# Scan Mode:                    FixedAnalyzerTransmission
# Curves/Scan:                  1
# Values/Curve:                 201
# Dwell Time:                   0.15
# Excitation Energy:            1253.64
# Binding Energy:               535
# Pass Energy:                  10
# Bias Voltage:                 90
# Detector Voltage:             3000
# Eff. Workfunction:            4.543
# Source:                       X-Ray Dummy
# Comment:                      
#
# Cycle: 0
# Number of Scans: 3
#
# Cycle: 0, Curve: 0
# Acquisition Date:             02/05/25 15:45:59 UTC-5
#
# ColumnLabels:                 energy counts/s
#
535  504.55572
534.975  512.45531
534.95  554.33656
534.925  563.49956
534.9  544.5631
534.875  551.16419
534.85  521.2382
534.825  515.53883
534.8  517.45244
534.775  518.86365
534.75  552.21796
534.725  557.17535
534.7  572.4727
534.675  579.54004
534.65  526.26212
534.625  546.13542
534.6  559.90229
534.575  581.19108
534.55  561.48229
534.525  576.08481
534.5  591.92939
534.475  582.14473
534.45  588.3572
534.425  610.05111
534.4  617.90321
534.375  633.73915
534.35  661.56313
534.325  634.06509
534.3  622.19077
534.275  548.4696
534.25  580.22145
534.225  572.1909
534.2  569.96712
534.175  581.6793
534.15  644.66092
534.125  653.36103
534.1  601.86941
534.075  619.21926
534.05  661.3966
534.025  666.65392
534  654.08431
533.975  664.21645
533.95  653.92001
533.925  701.50788
533.9  680.57095
533.875  710.0342
533.85  698.1518
533.825  745.95884
533.8  736.09188
533.775  737.33179
533.75  651.65109
533.725  711.225
533.7  763.47667
533.675  740.90057
533.65  753.44612
533.625  758.96691
533.6  818.45627
533.575  841.63876
533.55  801.39857
533.525  840.02924
533.5  895.09382
533.475  876.15505
533.45  911.75346
533.425  944.96248
533.4  975.37414
533.375  996.52544
533.35  999.54339
533.325  956.65572
533.3  1009.3073
533.275  1046.7446
533.25  1015.4283
533.225  989.55712
533.2  1002.3602
533.175  1061.5172
533.15  1045.1589
533.125  1084.9575
533.1  1140.9757
533.075  1146.7227
533.05  1117.3039
533.025  1150.3301
533  1219.2287
532.975  1160.7426
532.95  1159.7403
532.925  1229.7316
532.9  1292.5174
532.875  1251.9985
532.85  1223.7821
532.825  1198.589
532.8  1310.0872
532.775  1300.5695
532.75  1243.8554
532.725  1228.5797
532.7  1239.0369
532.675  1265.3924
532.65  1321.4876
532.625  1213.0395
532.6  1256.0963
532.575  1207.5225
532.55  1144.609
532.525  1218.7912
532.5  1155.0742
532.475  1193.9272
532.45  1144.7272
532.425  1196.5584
532.4  1217.1955
532.375  1198.3342
532.35  1089.5794
532.325  1193.9565
532.3  1174.3362
532.275  1070.0007
532.25  1118.332
532.225  1115.9414
532.2  1060.124
532.175  1073.2811
532.15  1024.6839
532.125  980.4345
532.1  1081.2735
532.075  964.80789
532.05  943.72511
532.025  921.75883
532  868.39268
531.975  880.47494
531.95  848.79749
531.925  810.27196
531.9  807.20197
531.875  839.66474
531.85  745.40463
531.825  771.63331
531.8  742.97767
531.775  644.76321
531.75  723.50672
531.725  727.05643
531.7  714.1046
531.675  736.47371
531.65  616.94498
531.625  646.11832
531.6  568.99243
531.575  594.55204
531.55  644.67207
531.525  578.35772
531.5  607.13942
531.475  578.94592
531.45  556.6279
531.425  551.8094
531.4  525.19645
531.375  547.74657
531.35  492.22173
531.325  469.00737
531.3  513.30202
531.275  498.00792
531.25  488.09429
531.225  499.92508
531.2  502.24424
531.175  453.93009
531.15  455.48384
531.125  508.33348
531.1  485.35164
531.075  514.67739
531.05  502.77203
531.025  498.89964
531  521.73828
530.975  474.9862
530.95  470.03767
530.925  485.97056
530.9  428.80948
530.875  438.11566
530.85  445.3518
530.825  407.44417
530.8  432.50601
530.775  400.70244
530.75  423.39159
530.725  433.73926
530.7  387.92195
530.675  391.10503
530.65  377.18972
530.625  433.60844
530.6  417.33776
530.575  428.77519
530.55  419.66499
530.525  430.52568
530.5  393.52014
530.475  385.56855
530.45  430.47164
530.425  413.51222
530.4  376.25301
530.375  398.31349
530.35  377.82143
530.325  381.29516
530.3  345.7864
530.275  373.8395
530.25  443.81613
530.225  393.85247
530.2  399.49041
530.175  376.77607
530.15  419.86218
530.125  405.77983
530.1  412.34612
530.075  410.66273
530.05  398.4462
530.025  399.10428
530  396.84492

# Operation:                    Peak Location
# Range Start:                  537.534
# Range End:                    523.659
# Parameter: "Peak-Annotation" = Peak at <Peak (x):@>
#
# Result:
# Number of Results:            1
# Parameter: "Peak (x)" = 532.68923841845003 eV +- 0.017626810595270197
# Parameter: "Peak (y)" = 1259.3171451776025 cps
# Parameter: "Fit Start" = 720.44000000000005 eV
# Parameter: "Fit End" = 721.54000000000008 eV
#
# Result Name:                  Peak Location
# Number of Curves:             1
#
# Curve:                        0
# Values/Curve:                 45
#
533.2  1055.2343
533.175  1069.7883
533.15  1084.3228
533.125  1098.76
533.1  1113.019
533.075  1127.0168
533.05  1140.6688
533.025  1153.8895
533  1166.594
532.975  1178.6979
532.95  1190.1192
532.925  1200.7787
532.9  1210.6008
532.875  1219.5149
532.85  1227.4557
532.825  1234.3645
532.8  1240.1893
532.775  1244.8861
532.75  1248.4191
532.725  1250.7611
532.7  1251.8941
532.675  1251.8093
532.65  1250.5075
532.625  1247.9985
532.6  1244.3019
532.575  1239.4458
532.55  1233.4675
532.525  1226.4119
532.5  1218.332
532.475  1209.2876
532.45  1199.3447
532.425  1188.5747
532.4  1177.0536
532.375  1164.8612
532.35  1152.0799
532.325  1138.794
532.3  1125.0888
532.275  1111.0497
532.25  1096.7609
532.225  1082.3055
532.2  1067.7637
532.175  1053.2129
532.15  1038.7267
532.125  1024.3743
532.1  1010.2203

# Region:                       Au 4f
# Spectrum ID:                  56
# Acquisition Date:             02/05/25 15:47:49 UTC-5
# Analysis Method:              XPS
# Analyzer:                     PHOIBOS MCD5 Analyzer
# Analyzer Lens:                LargeArea:1.5kV
# Analyzer Slit:                8:7dia.\B:open
# Scan Mode:                    FixedAnalyzerTransmission
# Curves/Scan:                  1
# Values/Curve:                 167
# Dwell Time:                   0.15
# Excitation Energy:            1253.64
# Binding Energy:               88
# Pass Energy:                  10
# Bias Voltage:                 90
# Detector Voltage:             3000
# Eff. Workfunction:            4.543
# Source:                       X-Ray Dummy
# Comment:                      
#
# Cycle: 0
# Number of Scans: 3
#
# Cycle: 0, Curve: 0
# Acquisition Date:             02/05/25 15:47:49 UTC-5
#
# ColumnLabels:                 energy counts/s
#
88  137.89314
87.975904  163.13256
87.951807  139.31116
87.927711  150.30668
87.903614  143.27792
87.879518  143.77849
87.855422  163.21208
87.831325  168.85316
87.807229  183.93621
87.783133  144.22963
87.759036  162.58885
87.73494  150.07733
87.710843  132.85994
87.686747  143.43734
87.662651  195.68095
87.638554  178.51634
87.614458  140.34859
87.590361  166.31374
87.566265  171.77862
87.542169  177.69998
87.518072  156.73337
87.493976  196.30418
87.46988  186.83261
87.445783  189.09773
87.421687  179.23897
87.39759  239.60014
87.373494  196.29135
87.349398  203.45783
87.325301  188.33901
87.301205  209.51718
87.277108  247.45696
87.253012  208.26917
87.228916  228.44597
87.204819  244.6026
87.180723  241.07868
87.156627  229.67224
87.13253  231.74427
87.108434  225.94443
87.084337  271.83087
87.060241  257.92684
87.036145  266.41044
87.012048  282.13992
86.987952  271.39407
86.963855  275.68558
86.939759  257.50037
86.915663  290.3629
86.891566  272.43063
86.86747  303.64857
86.843373  330.40799
86.819277  309.55319
86.795181  316.74586
86.771084  323.11549
86.746988  332.69246
86.722892  367.45617
86.698795  341.15019
86.674699  341.60147
86.650602  338.52864
86.626506  377.17646
86.60241  383.52607
86.578313  380.2613
86.554217  401.22864
86.53012  397.28101
86.506024  406.76519
86.481928  396.14887
86.457831  414.51643
86.433735  382.91328
86.409639  384.50847
86.385542  390.08158
86.361446  378.2122
86.337349  391.08907
86.313253  402.20218
86.289157  397.4196
86.26506  390.52147
86.240964  370.57443
86.216867  403.09486
86.192771  377.66144
86.168675  392.99586
86.144578  364.01692
86.120482  318.8259
86.096386  347.77235
86.072289  385.51848
86.048193  332.93683
86.024096  336.75084
86  329.55476
85.975904  335.68828
85.951807  308.49411
85.927711  350.24561
85.903614  298.21549
85.879518  269.32378
85.855422  318.95101
85.831325  272.51706
85.807229  264.71006
85.783133  304.73727
85.759036  240.44213
85.73494  254.17161
85.710843  240.04233
85.686747  219.49374
85.662651  236.16413
85.638554  265.11956
85.614458  207.99205
85.590361  208.59043
85.566265  199.46493
85.542169  198.50971
85.518072  194.17975
85.493976  179.20291
85.46988  160.20583
85.445783  171.99876
85.421687  159.9965
85.39759  188.33282
85.373494  187.93781
85.349398  149.36688
85.325301  136.58299
85.301205  155.78586
85.277108  162.46935
85.253012  164.57539
85.228916  162.59091
85.204819  157.8711
85.180723  135.22394
85.156627  161.523
85.13253  176.81257
85.108434  190.98272
85.084337  132.85957
85.060241  117.55736
85.036145  130.00483
85.012048  120.09275
84.987952  140.72293
84.963855  137.64751
84.939759  118.45135
84.915663  139.90737
84.891566  125.73243
84.86747  118.19291
84.843373  131.941
84.819277  130.76342
84.795181  147.4165
84.771084  131.81838
84.746988  141.35226
84.722892  120.75986
84.698795  120.27923
84.674699  155.04214
84.650602  110.28226
84.626506  124.6806
84.60241  127.98116
84.578313  134.9556
84.554217  132.43578
84.53012  123.98742
84.506024  118.542
84.481928  138.60847
84.457831  137.74459
84.433735  117.44248
84.409639  99.031646
84.385542  116.14793
84.361446  126.0527
84.337349  123.78063
84.313253  144.71843
84.289157  125.03669
84.26506  139.96811
84.240964  123.37787
84.216867  121.82142
84.192771  98.893566
84.168675  115.60246
84.144578  112.00279
84.120482  101.83624
84.096386  106.37465
84.072289  116.32934
84.048193  108.93506
84.024096  97.467986
84  98.645938

# Operation:                    Peak Location
# Range Start:                  88.5216
# Range End:                    81.0288
# Parameter: "Peak-Annotation" = Peak at <Peak (x):@>
#
# Result:
# Number of Results:            1
# Parameter: "Peak (x)" = 86.387770730726515 eV +- 0.014356848898996986
# Parameter: "Peak (y)" = 385.36711535914407 cps
# Parameter: "Fit Start" = 1166.5074698795181 eV
# Parameter: "Fit End" = 1167.929156626506 eV
#
# Result Name:                  Peak Location
# Number of Curves:             1
#
# Curve:                        0
# Values/Curve:                 60
#
87.13253  231.18881
87.108434  237.09797
87.084337  243.2214
87.060241  249.54492
87.036145  256.05192
87.012048  262.72341
86.987952  269.53798
86.963855  276.47187
86.939759  283.4991
86.915663  290.59152
86.891566  297.71901
86.86747  304.84962
86.843373  311.94981
86.819277  318.98469
86.795181  325.91825
86.771084  332.71368
86.746988  339.33371
86.722892  345.74087
86.698795  351.8979
86.674699  357.76809
86.650602  363.31562
86.626506  368.50593
86.60241  373.30611
86.578313  377.68518
86.554217  381.6145
86.53012  385.06802
86.506024  388.02258
86.481928  390.45821
86.457831  392.3583
86.433735  393.70981
86.409639  394.50344
86.385542  394.7337
86.361446  394.399
86.337349  393.50165
86.313253  392.04785
86.289157  390.04761
86.26506  387.51464
86.240964  384.46618
86.216867  380.92282
86.192771  376.90827
86.168675  372.44907
86.144578  367.57433
86.120482  362.3154
86.096386  356.70555
86.072289  350.77957
86.048193  344.57348
86.024096  338.12413
86  331.46883
85.975904  324.64505
85.951807  317.69
85.927711  310.64035
85.903614  303.53194
85.879518  296.39942
85.855422  289.27606
85.831325  282.19349
85.807229  275.18147
85.783133  268.26775
85.759036  261.47793
85.73494  254.83532
85.710843  248.36089

# Region:                       Ti 2p
# Spectrum ID:                  57
# Acquisition Date:             02/05/25 15:49:40 UTC-5
# Analysis Method:              XPS
# Analyzer:                     PHOIBOS MCD5 Analyzer
# Analyzer Lens:                LargeArea:1.5kV
# Analyzer Slit:                8:7dia.\B:open
# Scan Mode:                    FixedAnalyzerTransmission
# Curves/Scan:                  1
# Values/Curve:                 167
# Dwell Time:                   0.15
# Excitation Energy:            1253.64
# Binding Energy:               463
# Pass Energy:                  10
# Bias Voltage:                 90
# Detector Voltage:             3000
# Eff. Workfunction:            4.543
# Source:                       X-Ray Dummy
# Comment:                      
#
# Cycle: 0
# Number of Scans: 3
#
# Cycle: 0, Curve: 0
# Acquisition Date:             02/05/25 15:49:40 UTC-5
#
# ColumnLabels:                 energy counts/s
#
463  296.67702
462.9759  341.40813
462.95181  309.77334
462.92771  327.73571
462.90361  355.4124
462.87952  311.43132
462.85542  313.19537
462.83133  372.01837
462.80723  356.79959
462.78313  329.30063
462.75904  354.7866
462.73494  333.99797
462.71084  318.99537
462.68675  340.49907
462.66265  333.02705
462.63855  388.61409
462.61446  366.04972
462.59036  394.98797
462.56627  341.465
462.54217  359.10405
462.51807  393.55537
462.49398  426.72788
462.46988  438.27779
462.44578  439.02483
462.42169  425.65542
462.39759  434.32578
462.37349  446.84061
462.3494  491.80304
462.3253  527.397
462.3012  506.8638
462.27711  486.56001
462.25301  535.78816
462.22892  547.86684
462.20482  535.18555
462.18072  506.85446
462.15663  515.94547
462.13253  554.97536
462.10843  647.17482
462.08434  588.3056
462.06024  590.24373
462.03614  615.11712
462.01205  690.10855
461.98795  681.40165
461.96386  698.67162
461.93976  715.16531
461.91566  755.07621
461.89157  704.77967
461.86747  730.61373
461.84337  787.7764
461.81928  814.03013
461.79518  869.0384
461.77108  888.26629
461.74699  861.96372
461.72289  936.0424
461.6988  917.08483
461.6747  861.52988
461.6506  900.45645
461.62651  942.37565
461.60241  957.21303
461.57831  915.6443
461.55422  977.06461
461.53012  950.20331
461.50602  974.43634
461.48193  988.9331
461.45783  910.02956
461.43373  974.66769
461.40964  1003.2837
461.38554  979.83383
461.36145  1028.6279
461.33735  995.78468
461.31325  1031.6292
461.28916  955.23043
461.26506  996.21068
461.24096  962.49158
461.21687  958.53257
461.19277  948.89262
461.16867  917.30555
461.14458  926.61939
461.12048  858.80391
461.09639  907.77978
461.07229  825.53013
461.04819  866.47293
461.0241  907.41394
461  855.37713
460.9759  752.15998
460.95181  785.74824
460.92771  750.22507
460.90361  701.59665
460.87952  738.62486
460.85542  704.74683
460.83133  660.98997
460.80723  683.18706
460.78313  678.37749
460.75904  690.55974
460.73494  653.95797
460.71084  640.75735
460.68675  598.13158
460.66265  624.92603
460.63855  545.21518
460.61446  521.55304
460.59036  549.59076
460.56627  509.28721
460.54217  475.74823
460.51807  511.33529
460.49398  453.638
460.46988  434.87136
460.44578  439.79159
460.42169  431.20488
460.39759  397.0213
460.37349  415.63174
460.3494  445.45531
460.3253  379.12077
460.3012  354.20752
460.27711  374.78772
460.25301  402.93461
460.22892  378.77552
460.20482  365.95555
460.18072  315.41682
460.15663  322.42572
460.13253  351.72325
460.10843  294.76611
460.08434  301.31486
460.06024  286.59591
460.03614  291.66471
460.01205  306.7933
459.98795  310.14274
459.96386  321.24388
459.93976  311.10903
459.91566  329.12894
459.89157  310.58551
459.86747  295.8595
459.84337  304.24098
459.81928  269.49643
459.79518  240.01982
459.77108  247.22657
459.74699  227.87365
459.72289  276.36208
459.6988  299.65109
459.6747  253.17448
459.6506  246.35176
459.62651  248.38076
459.60241  311.41248
459.57831  311.13142
459.55422  233.77236
459.53012  246.38102
459.50602  236.31481
459.48193  203.37327
459.45783  225.92233
459.43373  235.79665
459.40964  273.06849
459.38554  290.08736
459.36145  259.71822
459.33735  224.04665
459.31325  232.06157
459.28916  219.0982
459.26506  239.45477
459.24096  239.97193
459.21687  250.60321
459.19277  204.47443
459.16867  210.79264
459.14458  234.26409
459.12048  240.36289
459.09639  246.3186
459.07229  232.12856
459.04819  229.59483
459.0241  248.2204
459  224.71532

# Operation:                    Peak Location
# Range Start:                  463.336
# Range End:                    455.266
# Parameter: "Peak-Annotation" = Peak at <Peak (x):@>
#
# Result:
# Number of Results:            1
# Parameter: "Peak (x)" = 461.40042208593388 eV +- 0.019159789414060747
# Parameter: "Peak (y)" = 989.86596863627142 cps
# Parameter: "Fit Start" = 791.91710843373505 eV
# Parameter: "Fit End" = 792.73638554216882 eV
#
# Result Name:                  Peak Location
# Number of Curves:             1
#
# Curve:                        0
# Values/Curve:                 35
#
461.72289  876.44699
461.6988  892.41249
461.6747  907.17589
461.6506  920.72826
461.62651  933.06136
461.60241  944.16771
461.57831  954.04055
461.55422  962.67386
461.53012  970.0624
461.50602  976.20164
461.48193  981.08785
461.45783  984.71803
461.43373  987.08997
461.40964  988.20222
461.38554  988.0541
461.36145  986.64569
461.33735  983.97786
461.31325  980.05224
461.28916  974.87124
461.26506  968.438
461.24096  960.75647
461.21687  951.83132
461.19277  941.668
461.16867  930.27269
461.14458  917.65232
461.12048  903.81455
461.09639  888.76779
461.07229  872.52113
461.04819  855.08439
461.0241  836.46809
461  816.68345
460.9759  795.74234
460.95181  773.65732
460.92771  750.44159
460.90361  726.10899

# Region:                       O 1s
# Spectrum ID:                  58
# Acquisition Date:             02/05/25 15:51:46 UTC-5
# Analysis Method:              XPS
# Analyzer:                     PHOIBOS MCD5 Analyzer
# Analyzer Lens:                LargeArea:1.5kV
# Analyzer Slit:                8:7dia.\B:open
# Scan Mode:                    FixedAnalyzerTransmission
# Curves/Scan:                  1
# Values/Curve:                 201
# Dwell Time:                   0.15
# Excitation Energy:            1253.64
# Binding Energy:               535
# Pass Energy:                  10
# Bias Voltage:                 90
# Detector Voltage:             3000
# Eff. Workfunction:            4.543
# Source:                       X-Ray Dummy
# Comment:                      
#
# Cycle: 0
# Number of Scans: 3
#
# Cycle: 0, Curve: 0
# Acquisition Date:             02/05/25 15:51:46 UTC-5
#
# ColumnLabels:                 energy counts/s
#
535  560.34078
534.975  532.85817
534.95  520.20659
534.925  550.02231
534.9  524.41754
534.875  538.70492
534.85  506.72833
534.825  588.33617
534.8  531.41079
534.775  554.96142
534.75  586.57822
534.725  524.69035
534.7  508.30268
534.675  503.82849
534.65  559.57604
534.625  536.035
534.6  572.61683
534.575  595.68676
534.55  542.34226
534.525  560.95656
534.5  557.03849
534.475  600.7336
534.45  596.32809
534.425  573.80946
534.4  560.26179
534.375  516.64274
534.35  594.53404
534.325  587.26876
534.3  549.51371
534.275  597.66789
534.25  616.90591
534.225  660.58843
534.2  631.57944
534.175  632.54503
534.15  639.49267
534.125  657.7774
534.1  671.88481
534.075  638.37444
534.05  643.75132
534.025  618.30602
534  627.11519
533.975  687.47332
533.95  700.00321
533.925  709.23461
533.9  694.68257
533.875  684.96193
533.85  711.93587
533.825  714.94273
533.8  725.32972
533.775  727.26162
533.75  708.65572
533.725  717.91611
533.7  770.49415
533.675  805.37743
533.65  752.89235
533.625  795.05059
533.6  785.26289
533.575  741.32214
533.55  826.94007
533.525  802.90605
533.5  848.28325
533.475  873.58902
533.45  903.25295
533.425  957.19635
533.4  979.60245
533.375  922.9856
533.35  996.83654
533.325  994.064
533.3  907.97515
533.275  1018.6976
533.25  971.91464
533.225  1025.8069
533.2  1064.3206
533.175  1071.3105
533.15  1075.5905
533.125  1050.5929
533.1  1144.2351
533.075  1150.1548
533.05  1126.6931
533.025  1108.0237
533  1146.7736
532.975  1158.9288
532.95  1179.2752
532.925  1228.5983
532.9  1219.2676
532.875  1144.4443
532.85  1201.9674
532.825  1233.9215
532.8  1211.2064
532.775  1253.1488
532.75  1221.7546
532.725  1141.2415
532.7  1263.5773
532.675  1286.1049
532.65  1242.0945
532.625  1282.3189
532.6  1242.4104
532.575  1278.132
532.55  1222.3809
532.525  1166.329
532.5  1231.508
532.475  1167.1294
532.45  1150.5733
532.425  1194.2938
532.4  1182.8652
532.375  1159.4693
532.35  1060.4291
532.325  1182.7967
532.3  1171.4797
532.275  1092.1458
532.25  1048.6787
532.225  1023.4347
532.2  1042.1705
532.175  1072.9894
532.15  1006.9132
532.125  1059.2302
532.1  992.51426
532.075  933.37715
532.05  911.55027
532.025  896.4499
532  903.93815
531.975  889.57958
531.95  882.66969
531.925  840.13483
531.9  822.29732
531.875  843.31915
531.85  798.48653
531.825  747.80248
531.8  735.80156
531.775  699.0106
531.75  667.85642
531.725  694.11674
531.7  677.59727
531.675  675.89562
531.65  680.24977
531.625  628.18996
531.6  605.91879
531.575  604.80555
531.55  654.6487
531.525  608.31235
531.5  587.64189
531.475  578.96476
531.45  600.52875
531.425  579.53248
531.4  524.85512
531.375  519.05959
531.35  508.79878
531.325  524.42251
531.3  508.85815
531.275  511.70844
531.25  487.49603
531.225  480.12894
531.2  482.83419
531.175  475.60047
531.15  496.82339
531.125  481.63745
531.1  440.00776
531.075  440.55268
531.05  503.97108
531.025  497.84049
531  467.64687
530.975  469.75981
530.95  422.24682
530.925  430.38911
530.9  439.61015
530.875  442.76227
530.85  451.11056
530.825  481.94415
530.8  438.50733
530.775  520.50383
530.75  440.02252
530.725  406.56843
530.7  427.31336
530.675  413.30602
530.65  413.22016
530.625  393.43592
530.6  437.41093
530.575  439.48412
530.55  394.02969
530.525  415.79414
530.5  471.21445
530.475  475.78964
530.45  401.06389
530.425  458.36772
530.4  427.66296
530.375  401.82096
530.35  436.93162
530.325  393.48291
530.3  428.25388
530.275  449.70867
530.25  390.90044
530.225  421.66149
530.2  441.88434
530.175  404.18001
530.15  368.67257
530.125  404.83231
530.1  370.32422
530.075  379.7657
530.05  394.68173
530.025  407.20183
530  396.76955

# Operation:                    Peak Location
# Range Start:                  537.534
# Range End:                    523.659
# Parameter: "Peak-Annotation" = Peak at <Peak (x):@>
#
# Result:
# Number of Results:            1
# Parameter: "Peak (x)" = 532.68845849992135 eV +- 0.01615491865037906
# Parameter: "Peak (y)" = 1244.154427098915 cps
# Parameter: "Fit Start" = 720.3900000000001 eV
# Parameter: "Fit End" = 721.54000000000008 eV
#
# Result Name:                  Peak Location
# Number of Curves:             1
#
# Curve:                        0
# Values/Curve:                 47
#
533.25  1012.5419
533.225  1026.8579
533.2  1041.3124
533.175  1055.8354
533.15  1070.3525
533.125  1084.7855
533.1  1099.053
533.075  1113.0711
533.05  1126.7542
533.025  1140.0158
533  1152.7695
532.975  1164.93
532.95  1176.4135
532.925  1187.1394
532.9  1197.0308
532.875  1206.0154
532.85  1214.0266
532.825  1221.0042
532.8  1226.8951
532.775  1231.654
532.75  1235.2441
532.725  1237.6374
532.7  1238.8152
532.675  1238.7681
532.65  1237.4967
532.625  1235.0109
532.6  1231.3301
532.575  1226.483
532.55  1220.507
532.525  1213.4482
532.5  1205.3601
532.475  1196.3035
532.45  1186.3455
532.425  1175.5587
532.4  1164.0204
532.375  1151.8115
532.35  1139.0158
532.325  1125.7188
532.3  1112.007
532.275  1097.9667
532.25  1083.6836
532.225  1069.2413
532.2  1054.721
532.175  1040.2007
532.15  1025.7544
532.125  1011.4518
532.1  997.35748

# Region:                       Au 4f
# Spectrum ID:                  59
# Acquisition Date:             02/05/25 15:53:37 UTC-5
# Analysis Method:              XPS
# Analyzer:                     PHOIBOS MCD5 Analyzer
# Analyzer Lens:                LargeArea:1.5kV
# Analyzer Slit:                8:7dia.\B:open
# Scan Mode:                    FixedAnalyzerTransmission
# Curves/Scan:                  1
# Values/Curve:                 167
# Dwell Time:                   0.15
# Excitation Energy:            1253.64
# Binding Energy:               88
# Pass Energy:                  10
# Bias Voltage:                 90
# Detector Voltage:             3000
# Eff. Workfunction:            4.543
# Source:                       X-Ray Dummy
# Comment:                      
#
# Cycle: 0
# Number of Scans: 3
#
# Cycle: 0, Curve: 0
# Acquisition Date:             02/05/25 15:53:37 UTC-5
#
# ColumnLabels:                 energy counts/s
#
88  128.18159
87.975904  138.31773
87.951807  138.36942
87.927711  151.61294
87.903614  187.20241
87.879518  179.64554
87.855422  142.40573
87.831325  150.05804
87.807229  170.49697
87.783133  173.99777
87.759036  166.37682
87.73494  177.20947
87.710843  182.1674
87.686747  155.40749
87.662651  175.06048
87.638554  176.61276
87.614458  189.80211
87.590361  183.4999
87.566265  197.97718
87.542169  184.53826
87.518072  157.30845
87.493976  173.70413
87.46988  174.65195
87.445783  170.04047
87.421687  191.0416
87.39759  177.57976
87.373494  185.80392
87.349398  213.87945
87.325301  246.7155
87.301205  203.74923
87.277108  228.04332
87.253012  243.84991
87.228916  240.23728
87.204819  224.91424
87.180723  203.20793
87.156627  223.90927
87.13253  225.24546
87.108434  225.44703
87.084337  196.18342
87.060241  234.54371
87.036145  226.10421
87.012048  260.20953
86.987952  247.25149
86.963855  277.59371
86.939759  278.8765
86.915663  288.00948
86.891566  306.39141
86.86747  287.58531
86.843373  302.18003
86.819277  298.9058
86.795181  296.13491
86.771084  302.90954
86.746988  347.73316
86.722892  386.28172
86.698795  317.55071
86.674699  331.06092
86.650602  348.05554
86.626506  321.5312
86.60241  348.0771
86.578313  383.24812
86.554217  375.92232
86.53012  386.09949
86.506024  363.49613
86.481928  401.73359
86.457831  380.99653
86.433735  384.58237
86.409639  415.73236
86.385542  401.01544
86.361446  376.9511
86.337349  354.53445
86.313253  367.86909
86.289157  367.6529
86.26506  353.33506
86.240964  413.06682
86.216867  399.43708
86.192771  370.80665
86.168675  353.21924
86.144578  377.26075
86.120482  376.71705
86.096386  345.41086
86.072289  343.8608
86.048193  338.44111
86.024096  337.26669
86  379.75681
85.975904  346.00971
85.951807  323.14423
85.927711  312.82407
85.903614  313.16889
85.879518  285.37423
85.855422  283.79074
85.831325  276.42144
85.807229  292.32789
85.783133  258.3591
85.759036  267.54776
85.73494  235.47841
85.710843  226.46518
85.686747  223.57142
85.662651  225.59631
85.638554  224.29813
85.614458  225.88478
85.590361  221.54611
85.566265  193.91707
85.542169  194.03305
85.518072  215.78992
85.493976  198.35504
85.46988  189.75264
85.445783  203.91939
85.421687  208.07373
85.39759  176.49859
85.373494  166.21925
85.349398  183.9652
85.325301  189.62843
85.301205  143.72351
85.277108  148.66344
85.253012  138.24243
85.228916  161.95302
85.204819  162.03941
85.180723  162.46644
85.156627  174.76053
85.13253  151.12015
85.108434  120.85362
85.084337  149.55604
85.060241  144.11116
85.036145  104.94432
85.012048  126.80154
84.987952  131.52377
84.963855  137.46146
84.939759  133.44189
84.915663  115.89003
84.891566  123.66369
84.86747  142.07757
84.843373  146.10439
84.819277  152.92756
84.795181  130.61391
84.771084  149.11963
84.746988  127.8449
84.722892  132.21785
84.698795  122.31163
84.674699  126.84644
84.650602  125.4604
84.626506  134.6101
84.60241  128.10355
84.578313  120.3073
84.554217  116.05876
84.53012  115.46304
84.506024  134.43216
84.481928  129.06489
84.457831  117.81349
84.433735  133.74072
84.409639  110.31174
84.385542  109.86787
84.361446  141.29543
84.337349  138.01106
84.313253  116.28183
84.289157  117.11275
84.26506  117.92632
84.240964  124.19483
84.216867  120.9419
84.192771  107.92173
84.168675  118.33882
84.144578  133.1002
84.120482  105.98377
84.096386  114.17833
84.072289  130.56651
84.048193  119.68487
84.024096  118.99821
84  98.751078

# Operation:                    Peak Location
# Range Start:                  88.4222
# Range End:                    81.0288
# Parameter: "Peak-Annotation" = Peak at <Peak (x):@>
#
# Result:
# Number of Results:            1
# Parameter: "Peak (x)" = 86.368772386302453 eV +- 0.011845920637485574
# Parameter: "Peak (y)" = 383.94794146609911 cps
# Parameter: "Fit Start" = 1166.5556626506025 eV
# Parameter: "Fit End" = 1167.9532530120482 eV
#
# Result Name:                  Peak Location
# Number of Curves:             1
#
# Curve:                        0
# Values/Curve:                 59
#
87.084337  209.58576
87.060241  220.62052
87.036145  231.32875
87.012048  241.7053
86.987952  251.74515
86.963855  261.44345
86.939759  270.7955
86.915663  279.79674
86.891566  288.44278
86.86747  296.72939
86.843373  304.6525
86.819277  312.20823
86.795181  319.39283
86.771084  326.20278
86.746988  332.63469
86.722892  338.68538
86.698795  344.35184
86.674699  349.63125
86.650602  354.52099
86.626506  359.01861
86.60241  363.12187
86.578313  366.82871
86.554217  370.13728
86.53012  373.04592
86.506024  375.55317
86.481928  377.65776
86.457831  379.35866
86.433735  380.65498
86.409639  381.5461
86.385542  382.03155
86.361446  382.1111
86.337349  381.7847
86.313253  381.05252
86.289157  379.91492
86.26506  378.37249
86.240964  376.42598
86.216867  374.07639
86.192771  371.32489
86.168675  368.17287
86.144578  364.6219
86.120482  360.67376
86.096386  356.33042
86.072289  351.59407
86.048193  346.46707
86.024096  340.95196
86  335.0515
85.975904  328.76862
85.951807  322.10643
85.927711  315.06824
85.903614  307.65752
85.879518  299.87793
85.855422  291.73329
85.831325  283.22762
85.807229  274.36506
85.783133  265.14996
85.759036  255.5868
85.73494  245.68023
85.710843  235.43504
85.686747  224.85619

# Region:                       Ti 2p
# Spectrum ID:                  60
# Acquisition Date:             02/05/25 15:55:28 UTC-5
# Analysis Method:              XPS
# Analyzer:                     PHOIBOS MCD5 Analyzer
# Analyzer Lens:                LargeArea:1.5kV
# Analyzer Slit:                8:7dia.\B:open
# Scan Mode:                    FixedAnalyzerTransmission
# Curves/Scan:                  1
# Values/Curve:                 167
# Dwell Time:                   0.15
# Excitation Energy:            1253.64
# Binding Energy:               463
# Pass Energy:                  10
# Bias Voltage:                 90
# Detector Voltage:             3000
# Eff. Workfunction:            4.543
# Source:                       X-Ray Dummy
# Comment:                      
#
# Cycle: 0
# Number of Scans: 3
#
# Cycle: 0, Curve: 0
# Acquisition Date:             02/05/25 15:55:28 UTC-5
#
# ColumnLabels:                 energy counts/s
#
463  307.14845
462.9759  309.18126
462.95181  341.01627
462.92771  344.51825
462.90361  360.97547
462.87952  328.10401
462.85542  338.27914
462.83133  322.64247
462.80723  304.77504
462.78313  364.01929
462.75904  393.66797
462.73494  366.76761
462.71084  383.87658
462.68675  366.86601
462.66265  325.66886
462.63855  348.65037
462.61446  347.423
462.59036  380.43611
462.56627  377.22503
462.54217  378.57031
462.51807  365.38743
462.49398  402.70183
462.46988  459.40046
462.44578  431.85761
462.42169  455.45488
462.39759  438.77857
462.37349  443.91321
462.3494  441.63293
462.3253  437.34384
462.3012  452.38262
462.27711  421.05218
462.25301  478.78367
462.22892  526.43501
462.20482  514.12933
462.18072  554.86363
462.15663  561.1119
462.13253  529.61509
462.10843  533.84417
462.08434  556.53683
462.06024  603.69287
462.03614  615.66475
462.01205  675.37573
461.98795  736.86689
461.96386  750.03768
461.93976  747.68367
461.91566  753.56438
461.89157  764.48113
461.86747  737.26744
461.84337  815.24897
461.81928  739.87273
461.79518  833.0093
461.77108  794.76268
461.74699  849.32331
461.72289  881.67048
461.6988  887.34382
461.6747  879.86635
461.6506  902.54963
461.62651  866.02039
461.60241  941.49888
461.57831  914.99253
461.55422  933.9775
461.53012  914.63134
461.50602  975.5296
461.48193  1028.9883
461.45783  1020.741
461.43373  996.53287
461.40964  1002.8046
461.38554  1015.3707
461.36145  1017.9067
461.33735  1000.4432
461.31325  939.97578
461.28916  964.46103
461.26506  929.03543
461.24096  998.41635
461.21687  957.05132
461.19277  1020.6893
461.16867  1027.7603
461.14458  988.46383
461.12048  839.77985
461.09639  949.59337
461.07229  847.16658
461.04819  806.30977
461.0241  846.38004
461  859.52416
460.9759  824.67475
460.95181  740.73512
460.92771  722.98981
460.90361  772.81299
460.87952  732.59057
460.85542  661.91478
460.83133  676.89124
460.80723  673.16856
460.78313  684.71223
460.75904  608.18408
460.73494  656.04098
460.71084  620.6419
460.68675  591.14342
460.66265  584.2911
460.63855  563.23844
460.61446  511.81998
460.59036  515.67299
460.56627  483.10879
460.54217  535.17167
460.51807  524.66274
460.49398  508.48892
460.46988  548.04634
460.44578  469.93578
460.42169  456.57446
460.39759  451.91641
460.37349  358.06351
460.3494  389.95817
460.3253  397.19065
460.3012  426.26783
460.27711  420.97225
460.25301  392.85218
460.22892  337.48264
460.20482  360.59747
460.18072  367.92235
460.15663  319.28085
460.13253  317.27875
460.10843  346.04625
460.08434  303.12851
460.06024  365.54236
460.03614  290.02563
460.01205  314.25753
459.98795  261.50983
459.96386  301.44071
459.93976  291.73918
459.91566  285.68626
459.89157  276.61091
459.86747  273.06952
459.84337  247.38267
459.81928  263.62823
459.79518  250.72899
459.77108  244.78074
459.74699  237.93799
459.72289  257.62325
459.6988  265.68009
459.6747  305.05997
459.6506  290.96468
459.62651  227.19369
459.60241  238.47692
459.57831  264.44863
459.55422  257.696
459.53012  276.44953
459.50602  258.23261
459.48193  246.1931
459.45783  250.50959
459.43373  282.53785
459.40964  265.72098
459.38554  237.26663
459.36145  224.03658
459.33735  233.99614
459.31325  265.97697
459.28916  253.38299
459.26506  264.14125
459.24096  224.72234
459.21687  224.05945
459.19277  214.9195
459.16867  229.44229
459.14458  248.10389
459.12048  269.64445
459.09639  283.5974
459.07229  263.6855
459.04819  247.79193
459.0241  241.21301
459  223.84675

# Operation:                    Peak Location
# Range Start:                  463.336
# Range End:                    455.266
# Parameter: "Peak-Annotation" = Peak at <Peak (x):@>
#
# Result:
# Number of Results:            1
# Parameter: "Peak (x)" = 461.38470430056952 eV +- 0.011760569403941138
# Parameter: "Peak (y)" = 1006.3677857027591 cps
# Parameter: "Fit Start" = 791.72433734939773 eV
# Parameter: "Fit End" = 792.73638554216882 eV
#
# Result Name:                  Peak Location
# Number of Curves:             1
#
# Curve:                        0
# Values/Curve:                 43
#
461.91566  719.12431
461.89157  736.11649
461.86747  753.42694
461.84337  770.96458
461.81928  788.63025
461.79518  806.31739
461.77108  823.91306
461.74699  841.29898
461.72289  858.35279
461.6988  874.9494
461.6747  890.96251
461.6506  906.26613
461.62651  920.73621
461.60241  934.25233
461.57831  946.69934
461.55422  957.96897
461.53012  967.9614
461.50602  976.58676
461.48193  983.76643
461.45783  989.43427
461.43373  993.5376
461.40964  996.03806
461.38554  996.91215
461.36145  996.15164
461.33735  993.76371
461.31325  989.77077
461.28916  984.21019
461.26506  977.13366
461.24096  968.60643
461.21687  958.70629
461.19277  947.52236
461.16867  935.15382
461.14458  921.70838
461.12048  907.3008
461.09639  892.05117
461.07229  876.08334
461.04819  859.52321
461.0241  842.49713
461  825.13031
460.9759  807.54534
460.95181  789.86084
460.92771  772.19015
460.90361  754.64031

# Region:                       O 1s
# Spectrum ID:                  61
# Acquisition Date:             02/05/25 15:57:34 UTC-5
# Analysis Method:              XPS
# Analyzer:                     PHOIBOS MCD5 Analyzer
# Analyzer Lens:                LargeArea:1.5kV
# Analyzer Slit:                8:7dia.\B:open
# Scan Mode:                    FixedAnalyzerTransmission
# Curves/Scan:                  1
# Values/Curve:                 201
# Dwell Time:                   0.15
# Excitation Energy:            1253.64
# Binding Energy:               535
# Pass Energy:                  10
# Bias Voltage:                 90
# Detector Voltage:             3000
# Eff. Workfunction:            4.543
# Source:                       X-Ray Dummy
# Comment:                      
#
# Cycle: 0
# Number of Scans: 3
#
# Cycle: 0, Curve: 0
# Acquisition Date:             02/05/25 15:57:34 UTC-5
#
# ColumnLabels:                 energy counts/s
#
535  545.06646
534.975  529.88132
534.95  544.72772
534.925  527.02972
534.9  557.417
534.875  529.7869
534.85  522.25051
534.825  523.6541
534.8  537.25711
534.775  525.09301
534.75  545.33644
534.725  523.09163
534.7  543.52861
534.675  544.40594
534.65  533.2471
534.625  529.0022
534.6  522.33607
534.575  586.04609
534.55  585.50337
534.525  589.9057
534.5  570.8471
534.475  566.03466
534.45  597.28467
534.425  577.48092
534.4  580.74381
534.375  592.06668
534.35  531.66078
534.325  547.22613
534.3  596.83215
534.275  561.07148
534.25  583.90679
534.225  590.16037
534.2  598.07828
534.175  604.1205
534.15  585.03923
534.125  645.43303
534.1  646.83088
534.075  635.75091
534.05  628.898
534.025  643.84765
534  648.41788
533.975  615.09417
533.95  641.26881
533.925  660.3911
533.9  628.54368
533.875  646.02608
533.85  649.2841
533.825  714.45472
533.8  677.37626
533.775  685.02451
533.75  736.99541
533.725  745.43385
533.7  737.34291
533.675  722.27168
533.65  775.12705
533.625  793.96459
533.6  815.61778
533.575  784.53469
533.55  828.11781
533.525  889.95374
533.5  854.76825
533.475  865.09828
533.45  850.04594
533.425  864.28374
533.4  901.5234
533.375  957.97292
533.35  950.41802
533.325  987.26232
533.3  987.0276
533.275  1007.2644
533.25  980.88722
533.225  1059.285
533.2  1069.1658
533.175  1035.744
533.15  1077.8635
533.125  1113.1173
533.1  1064.9743
533.075  1127.842
533.05  1126.7216
533.025  1193.2598
533  1236.9617
532.975  1183.4171
532.95  1176.0724
532.925  1166.6823
532.9  1270.2902
532.875  1286.6611
532.85  1256.6721
532.825  1210.6087
532.8  1297.5573
532.775  1231.1368
532.75  1288.3416
532.725  1266.0879
532.7  1316.0547
532.675  1291.362
532.65  1285.6457
532.625  1246.749
532.6  1230.5218
532.575  1202.1489
532.55  1238.1752
532.525  1187.9749
532.5  1235.6127
532.475  1154.2336
532.45  1167.451
532.425  1260.1804
532.4  1283.2448
532.375  1176.1015
532.35  1155.3348
532.325  1201.6067
532.3  1184.2826
532.275  1127.297
532.25  1097.3074
532.225  1094.984
532.2  1041.1715
532.175  1046.1255
532.15  1010.16
532.125  966.30955
532.1  945.86593
532.075  912.61686
532.05  884.00403
532.025  854.1706
532  883.0421
531.975  839.57698
531.95  850.03464
531.925  814.3422
531.9  733.58583
531.875  778.1547
531.85  730.49254
531.825  731.66838
531.8  740.6262
531.775  686.61752
531.75  675.29729
531.725  648.93217
531.7  752.26982
531.675  694.4052
531.65  669.7659
531.625  633.9222
531.6  614.0913
531.575  575.84096
531.55  605.19684
531.525  573.22282
531.5  560.84929
531.475  547.44286
531.45  515.52527
531.425  514.81172
531.4  529.53578
531.375  480.96198
531.35  512.97889
531.325  542.59853
531.3  526.07311
531.275  515.01939
531.25  489.75016
531.225  461.2741
531.2  477.87564
531.175  465.23136
531.15  455.68658
531.125  478.97334
531.1  468.12285
531.075  495.95436
531.05  475.28406
531.025  398.69571
531  435.39489
530.975  453.70845
530.95  493.89936
530.925  518.68868
530.9  458.78079
530.875  451.60356
530.85  484.95654
530.825  451.71619
530.8  388.96052
530.775  417.78467
530.75  429.88265
530.725  401.99188
530.7  402.25014
530.675  422.82205
530.65  424.38084
530.625  464.30948
530.6  415.99252
530.575  448.08801
530.55  469.00585
530.525  432.66814
530.5  424.56275
530.475  410.70112
530.45  430.9249
530.425  427.61956
530.4  430.45734
530.375  425.59216
530.35  393.72409
530.325  360.11472
530.3  388.71412
530.275  436.59057
530.25  449.366
530.225  419.90285
530.2  400.53549
530.175  409.21147
530.15  499.72879
530.125  456.41773
530.1  459.79968
530.075  376.47041
530.05  390.25201
530.025  370.48376
530  402.38511

# Operation:                    Peak Location
# Range Start:                  537.534
# Range End:                    523.659
# Parameter: "Peak-Annotation" = Peak at <Peak (x):@>
#
# Result:
# Number of Results:            1
# Parameter: "Peak (x)" = 532.68555855880129 eV +- 0.013829819761764945
# Parameter: "Peak (y)" = 1295.1643012001077 cps
# Parameter: "Fit Start" = 720.3900000000001 eV
# Parameter: "Fit End" = 721.49000000000012 eV
#
# Result Name:                  Peak Location
# Number of Curves:             1
#
# Curve:                        0
# Values/Curve:                 45
#
533.25  998.29565
533.225  1020.8918
533.2  1042.5497
533.175  1063.2577
533.15  1083.0049
533.125  1101.7805
533.1  1119.5745
533.075  1136.3774
533.05  1152.1801
533.025  1166.9741
533  1180.7512
532.975  1193.5042
532.95  1205.226
532.925  1215.9103
532.9  1225.5512
532.875  1234.1435
532.85  1241.6825
532.825  1248.1642
532.8  1253.5849
532.775  1257.9416
532.75  1261.2321
532.725  1263.4545
532.7  1264.6075
532.675  1264.6906
532.65  1263.7037
532.625  1261.6474
532.6  1258.5227
532.575  1254.3314
532.55  1249.0758
532.525  1242.7587
532.5  1235.3836
532.475  1226.9546
532.45  1217.4762
532.425  1206.9536
532.4  1195.3926
532.375  1182.7993
532.35  1169.1808
532.325  1154.5442
532.3  1138.8977
532.275  1122.2495
532.25  1104.6088
532.225  1085.985
532.2  1066.3881
532.175  1045.8286
532.15  1024.3175

# Region:                       Au 4f
# Spectrum ID:                  62
# Acquisition Date:             02/05/25 15:59:25 UTC-5
# Analysis Method:              XPS
# Analyzer:                     PHOIBOS MCD5 Analyzer
# Analyzer Lens:                LargeArea:1.5kV
# Analyzer Slit:                8:7dia.\B:open
# Scan Mode:                    FixedAnalyzerTransmission
# Curves/Scan:                  1
# Values/Curve:                 167
# Dwell Time:                   0.15
# Excitation Energy:            1253.64
# Binding Energy:               88
# Pass Energy:                  10
# Bias Voltage:                 90
# Detector Voltage:             3000
# Eff. Workfunction:            4.543
# Source:                       X-Ray Dummy
# Comment:                      
#
# Cycle: 0
# Number of Scans: 3
#
# Cycle: 0, Curve: 0
# Acquisition Date:             02/05/25 15:59:25 UTC-5
#
# ColumnLabels:                 energy counts/s
#
88  150.69453
87.975904  162.60519
87.951807  162.18358
87.927711  173.3719
87.903614  173.71848
87.879518  177.02623
87.855422  172.54471
87.831325  174.99465
87.807229  182.57387
87.783133  141.06449
87.759036  158.00573
87.73494  179.64139
87.710843  189.58107
87.686747  174.44684
87.662651  126.67338
87.638554  159.48943
87.614458  199.48191
87.590361  202.74111
87.566265  183.18658
87.542169  166.84477
87.518072  168.60747
87.493976  168.64126
87.46988  176.46058
87.445783  185.92276
87.421687  193.57249
87.39759  186.3214
87.373494  185.28066
87.349398  194.82591
87.325301  196.25746
87.301205  194.00567
87.277108  242.56515
87.253012  208.76081
87.228916  245.68358
87.204819  220.46066
87.180723  241.04869
87.156627  232.48883
87.13253  262.65793
87.108434  226.30763
87.084337  214.23716
87.060241  284.80978
87.036145  272.66468
87.012048  271.52021
86.987952  247.56209
86.963855  256.05789
86.939759  238.12586
86.915663  259.66935
86.891566  283.91412
86.86747  269.4792
86.843373  310.60275
86.819277  315.11313
86.795181  304.6934
86.771084  304.31158
86.746988  309.27782
86.722892  304.29799
86.698795  307.73821
86.674699  321.81859
86.650602  364.4258
86.626506  349.96171
86.60241  337.59528
86.578313  355.22883
86.554217  380.63611
86.53012  325.27033
86.506024  354.09194
86.481928  365.29201
86.457831  402.34395
86.433735  381.47891
86.409639  385.01985
86.385542  354.14058
86.361446  380.16495
86.337349  384.82922
86.313253  358.69945
86.289157  383.69953
86.26506  373.55673
86.240964  365.63603
86.216867  346.45387
86.192771  351.20496
86.168675  398.23829
86.144578  380.4919
86.120482  358.75963
86.096386  341.46684
86.072289  340.15773
86.048193  337.03582
86.024096  352.66221
86  319.80395
85.975904  300.3171
85.951807  309.04484
85.927711  317.85907
85.903614  340.27572
85.879518  296.70022
85.855422  298.91713
85.831325  309.78384
85.807229  277.35043
85.783133  256.35377
85.759036  247.65144
85.73494  237.751
85.710843  255.51185
85.686747  250.304
85.662651  230.26124
85.638554  257.84113
85.614458  263.23469
85.590361  277.51956
85.566265  216.83838
85.542169  190.80026
85.518072  208.33874
85.493976  195.5185
85.46988  204.96841
85.445783  185.37844
85.421687  177.71906
85.39759  176.09107
85.373494  177.56791
85.349398  169.26698
85.325301  161.49329
85.301205  177.45256
85.277108  156.94576
85.253012  152.33129
85.228916  152.0253
85.204819  150.04594
85.180723  165.88984
85.156627  168.17172
85.13253  143.29399
85.108434  147.20161
85.084337  141.61967
85.060241  114.40867
85.036145  139.12142
85.012048  133.34866
84.987952  141.33834
84.963855  146.70381
84.939759  146.57669
84.915663  117.14734
84.891566  110.83729
84.86747  148.52301
84.843373  134.37717
84.819277  140.11911
84.795181  165.67029
84.771084  134.95923
84.746988  125.28656
84.722892  116.91898
84.698795  131.96528
84.674699  127.81408
84.650602  144.89343
84.626506  143.88814
84.60241  118.35347
84.578313  106.74878
84.554217  110.39606
84.53012  133.89316
84.506024  133.56413
84.481928  122.66718
84.457831  116.93443
84.433735  115.78157
84.409639  135.34616
84.385542  148.00278
84.361446  97.897635
84.337349  122.32918
84.313253  129.22651
84.289157  91.3976
84.26506  125.41627
84.240964  107.69418
84.216867  129.4117
84.192771  116.95058
84.168675  107.52436
84.144578  117.87903
84.120482  114.41977
84.096386  104.67391
84.072289  114.25924
84.048193  106.58618
84.024096  113.41734
84  108.48616

# Operation:                    Peak Location
# Range Start:                  88.7602
# Range End:                    81.0288
# Parameter: "Peak-Annotation" = Peak at <Peak (x):@>
#
# Result:
# Number of Results:            1
# Parameter: "Peak (x)" = 86.349116537876853 eV +- 0.016237816929855278
# Parameter: "Peak (y)" = 374.34755248575385 cps
# Parameter: "Fit Start" = 1166.3869879518074 eV
# Parameter: "Fit End" = 1168.0737349397591 eV
#
# Result Name:                  Peak Location
# Number of Curves:             1
#
# Curve:                        0
# Values/Curve:                 71
#
87.253012  214.27761
87.228916  217.5718
87.204819  221.07133
87.180723  224.7772
87.156627  228.68895
87.13253  232.80454
87.108434  237.12021
87.084337  241.6304
87.060241  246.32768
87.036145  251.20263
87.012048  256.2438
86.987952  261.43771
86.963855  266.76881
86.939759  272.21951
86.915663  277.7702
86.891566  283.39935
86.86747  289.08361
86.843373  294.79789
86.819277  300.51557
86.795181  306.20865
86.771084  311.84796
86.746988  317.40341
86.722892  322.84422
86.698795  328.13923
86.674699  333.25714
86.650602  338.16686
86.626506  342.83777
86.60241  347.24008
86.578313  351.34515
86.554217  355.12573
86.53012  358.55633
86.506024  361.6135
86.481928  364.27605
86.457831  366.52534
86.433735  368.34547
86.409639  369.72349
86.385542  370.64952
86.361446  371.11692
86.337349  371.12232
86.313253  370.66567
86.289157  369.75027
86.26506  368.3827
86.240964  366.57275
86.216867  364.3333
86.192771  361.68019
86.168675  358.63199
86.144578  355.20983
86.120482  351.43714
86.096386  347.33934
86.072289  342.94363
86.048193  338.27865
86.024096  333.37417
86  328.26076
85.975904  322.96953
85.951807  317.53175
85.927711  311.97862
85.903614  306.34092
85.879518  300.64877
85.855422  294.93134
85.831325  289.21667
85.807229  283.53142
85.783133  277.9007
85.759036  272.34793
85.73494  266.89467
85.710843  261.56057
85.686747  256.36328
85.662651  251.31838
85.638554  246.43942
85.614458  241.73788
85.590361  237.22323
85.566265  232.90295

# Region:                       Ti 2p
# Spectrum ID:                  63
# Acquisition Date:             02/05/25 16:01:16 UTC-5
# Analysis Method:              XPS
# Analyzer:                     PHOIBOS MCD5 Analyzer
# Analyzer Lens:                LargeArea:1.5kV
# Analyzer Slit:                8:7dia.\B:open
# Scan Mode:                    FixedAnalyzerTransmission
# Curves/Scan:                  1
# Values/Curve:                 167
# Dwell Time:                   0.15
# Excitation Energy:            1253.64
# Binding Energy:               463
# Pass Energy:                  10
# Bias Voltage:                 90
# Detector Voltage:             3000
# Eff. Workfunction:            4.543
# Source:                       X-Ray Dummy
# Comment:                      
#
# Cycle: 0
# Number of Scans: 3
#
# Cycle: 0, Curve: 0
# Acquisition Date:             02/05/25 16:01:16 UTC-5
#
# ColumnLabels:                 energy counts/s
#
463  298.93762
462.9759  334.6663
462.95181  311.08758
462.92771  325.44961
462.90361  367.14876
462.87952  352.94455
462.85542  316.71913
462.83133  344.81177
462.80723  422.67024
462.78313  326.91564
462.75904  343.30586
462.73494  360.58722
462.71084  347.11863
462.68675  376.44532
462.66265  354.45761
462.63855  352.62043
462.61446  373.45523
462.59036  359.39972
462.56627  392.81568
462.54217  414.18647
462.51807  427.1044
462.49398  436.36487
462.46988  466.79138
462.44578  420.46395
462.42169  442.92631
462.39759  451.92172
462.37349  454.16951
462.3494  462.76951
462.3253  490.79619
462.3012  531.16331
462.27711  494.71767
462.25301  511.80761
462.22892  522.60775
462.20482  546.53955
462.18072  538.07581
462.15663  610.33487
462.13253  643.90258
462.10843  594.7385
462.08434  625.16951
462.06024  644.2097
462.03614  639.4317
462.01205  674.10736
461.98795  598.52704
461.96386  643.05278
461.93976  680.86622
461.91566  669.99119
461.89157  655.92956
461.86747  762.29533
461.84337  805.28219
461.81928  815.37876
461.79518  792.3603
461.77108  832.48316
461.74699  909.77465
461.72289  951.77207
461.6988  924.23821
461.6747  921.33709
461.6506  908.69057
461.62651  874.56954
461.60241  890.82407
461.57831  970.31181
461.55422  1024.3952
461.53012  937.32129
461.50602  943.71281
461.48193  966.10839
461.45783  987.1028
461.43373  1019.5596
461.40964  1070.8859
461.38554  995.86743
461.36145  982.48602
461.33735  1014.7206
461.31325  992.70743
461.28916  878.29069
461.26506  942.35939
461.24096  868.4079
461.21687  980.46974
461.19277  1004.8671
461.16867  934.62743
461.14458  933.44814
461.12048  915.42227
461.09639  857.89513
461.07229  821.40404
461.04819  952.60812
461.0241  814.60603
461  818.44748
460.9759  791.22548
460.95181  789.41357
460.92771  828.56971
460.90361  730.39477
460.87952  761.03152
460.85542  750.88735
460.83133  689.002
460.80723  653.13543
460.78313  630.11115
460.75904  587.11773
460.73494  658.13577
460.71084  668.33727
460.68675  595.1167
460.66265  544.44719
460.63855  512.40539
460.61446  580.9485
460.59036  504.8153
460.56627  508.74587
460.54217  530.84843
460.51807  491.12158
460.49398  468.00147
460.46988  446.54255
460.44578  446.25523
460.42169  424.03787
460.39759  428.73882
460.37349  392.71636
460.3494  382.62727
460.3253  375.31193
460.3012  392.27377
460.27711  386.67871
460.25301  379.75046
460.22892  349.92509
460.20482  358.69741
460.18072  312.44522
460.15663  315.01338
460.13253  356.32756
460.10843  320.3891
460.08434  309.69801
460.06024  312.48304
460.03614  338.19276
460.01205  291.43858
459.98795  298.7491
459.96386  288.53526
459.93976  303.62954
459.91566  278.38002
459.89157  279.1678
459.86747  274.71372
459.84337  327.01763
459.81928  290.16342
459.79518  276.40174
459.77108  251.1808
459.74699  279.59571
459.72289  280.12267
459.6988  270.48038
459.6747  239.59257
459.6506  264.11938
459.62651  276.83859
459.60241  276.60135
459.57831  254.51143
459.55422  264.54965
459.53012  242.15313
459.50602  260.6133
459.48193  269.42736
459.45783  231.80471
459.43373  240.41211
459.40964  250.04085
459.38554  252.2758
459.36145  232.47797
459.33735  267.64414
459.31325  238.16331
459.28916  211.76188
459.26506  227.57393
459.24096  220.08938
459.21687  231.5492
459.19277  259.1334
459.16867  232.53299
459.14458  242.89936
459.12048  195.45476
459.09639  223.06317
459.07229  261.66251
459.04819  239.49831
459.0241  261.69723
459  221.03103

# Operation:                    Peak Location
# Range Start:                  463.336
# Range End:                    455.266
# Parameter: "Peak-Annotation" = Peak at <Peak (x):@>
#
# Result:
# Number of Results:            1
# Parameter: "Peak (x)" = 461.40295861929326 eV +- 0.013225981826391349
# Parameter: "Peak (y)" = 983.22385300174039 cps
# Parameter: "Fit Start" = 791.77253012048197 eV
# Parameter: "Fit End" = 792.73638554216882 eV
#
# Result Name:                  Peak Location
# Number of Curves:             1
#
# Curve:                        0
# Values/Curve:                 41
#
461.86747  779.25664
461.84337  797.90468
461.81928  815.97803
461.79518  833.41661
461.77108  850.16147
461.74699  866.1551
461.72289  881.34176
461.6988  895.66783
461.6747  909.0821
461.6506  921.53606
461.62651  932.98425
461.60241  943.38445
461.57831  952.69802
461.55422  960.89009
461.53012  967.9298
461.50602  973.79049
461.48193  978.44985
461.45783  981.89008
461.43373  984.09802
461.40964  985.06518
461.38554  984.78785
461.36145  983.2671
461.33735  980.50877
461.31325  976.52343
461.28916  971.32633
461.26506  964.93729
461.24096  957.38058
461.21687  948.68475
461.19277  938.88248
461.16867  928.01034
461.14458  916.10861
461.12048  903.22096
461.09639  889.39426
461.07229  874.67827
461.04819  859.12529
461.0241  842.78995
461  825.72879
460.9759  808.00002
460.95181  789.66314
460.92771  770.7786
460.90361  751.40755

# Region:                       O 1s
# Spectrum ID:                  64
# Acquisition Date:             02/05/25 16:03:23 UTC-5
# Analysis Method:              XPS
# Analyzer:                     PHOIBOS MCD5 Analyzer
# Analyzer Lens:                LargeArea:1.5kV
# Analyzer Slit:                8:7dia.\B:open
# Scan Mode:                    FixedAnalyzerTransmission
# Curves/Scan:                  1
# Values/Curve:                 201
# Dwell Time:                   0.15
# Excitation Energy:            1253.64
# Binding Energy:               535
# Pass Energy:                  10
# Bias Voltage:                 90
# Detector Voltage:             3000
# Eff. Workfunction:            4.543
# Source:                       X-Ray Dummy
# Comment:                      
#
# Cycle: 0
# Number of Scans: 3
#
# Cycle: 0, Curve: 0
# Acquisition Date:             02/05/25 16:03:23 UTC-5
#
# ColumnLabels:                 energy counts/s
#
535  548.52581
534.975  494.10973
534.95  551.35026
534.925  548.50128
534.9  523.72092
534.875  487.98255
534.85  534.19879
534.825  524.08069
534.8  536.25229
534.775  556.07339
534.75  527.77274
534.725  561.08276
534.7  522.85216
534.675  530.58539
534.65  536.031
534.625  533.58561
534.6  515.41318
534.575  584.57142
534.55  558.08559
534.525  599.10624
534.5  536.05972
534.475  577.36303
534.45  577.56887
534.425  564.35012
534.4  555.47852
534.375  571.65745
534.35  587.44877
534.325  633.65878
534.3  610.82596
534.275  604.42284
534.25  623.48784
534.225  617.96402
534.2  598.67152
534.175  628.17463
534.15  564.71308
534.125  565.2773
534.1  666.57517
534.075  662.115
534.05  676.72169
534.025  639.91484
534  599.93084
533.975  652.2639
533.95  714.90361
533.925  669.02825
533.9  650.24186
533.875  699.40741
533.85  636.2474
533.825  688.37357
533.8  764.79918
533.775  711.82943
533.75  744.72895
533.725  675.11532
533.7  739.91882
533.675  723.80001
533.65  725.64448
533.625  787.07539
533.6  749.12949
533.575  773.07534
533.55  795.21404
533.525  871.3427
533.5  901.89732
533.475  900.72437
533.45  968.4496
533.425  937.6259
533.4  919.56852
533.375  941.12895
533.35  905.81861
533.325  886.45734
533.3  969.4389
533.275  1013.693
533.25  1009.3628
533.225  1035.2436
533.2  1062.4916
533.175  1073.4354
533.15  1029.7289
533.125  1051.9758
533.1  1134.2551
533.075  1214.1592
533.05  1146.8887
533.025  1203.5772
533  1136.6165
532.975  1210.933
532.95  1204.6821
532.925  1239.1212
532.9  1192.0357
532.875  1220.4926
532.85  1241.1322
532.825  1306.7798
532.8  1313.8254
532.775  1271.0286
532.75  1263.6473
532.725  1304.3143
532.7  1267.9494
532.675  1345.1297
532.65  1317.5382
532.625  1213.4599
532.6  1304.0461
532.575  1316.0566
532.55  1271.8177
532.525  1224.5909
532.5  1239.4573
532.475  1255.2618
532.45  1215.6378
532.425  1184.388
532.4  1190.6099
532.375  1134.0581
532.35  1217.5782
532.325  1117.7709
532.3  1056.0508
532.275  1125.1172
532.25  1104.0465
532.225  1044.3292
532.2  1069.5981
532.175  1067.4472
532.15  997.57648
532.125  991.22057
532.1  986.37576
532.075  954.58609
532.05  925.1583
532.025  939.31487
532  910.43804
531.975  895.46209
531.95  863.73565
531.925  823.79615
531.9  823.07767
531.875  747.90037
531.85  778.97494
531.825  757.49738
531.8  668.52444
531.775  724.30397
531.75  642.16932
531.725  586.48214
531.7  649.34668
531.675  594.37093
531.65  657.78587
531.625  636.70619
531.6  597.97993
531.575  590.5383
531.55  629.75956
531.525  573.50787
531.5  627.33827
531.475  605.65371
531.45  588.80088
531.425  576.91732
531.4  531.17283
531.375  542.25603
531.35  534.36185
531.325  480.05745
531.3  501.82465
531.275  517.6879
531.25  468.722
531.225  525.86053
531.2  518.48767
531.175  526.04469
531.15  502.37099
531.125  492.55169
531.1  460.23148
531.075  440.71197
531.05  485.21551
531.025  445.8564
531  479.10762
530.975  463.33669
530.95  451.96128
530.925  413.48181
530.9  412.70753
530.875  399.08875
530.85  444.00726
530.825  446.70628
530.8  435.48375
530.775  442.28195
530.75  421.68655
530.725  442.4782
530.7  408.04131
530.675  439.29595
530.65  420.34031
530.625  410.1658
530.6  410.84993
530.575  394.61957
530.55  481.97058
530.525  406.72048
530.5  425.66367
530.475  438.16857
530.45  426.05501
530.425  435.98777
530.4  408.56596
530.375  422.22343
530.35  385.14199
530.325  438.304
530.3  444.84627
530.275  363.52386
530.25  363.46528
530.225  375.32378
530.2  428.55972
530.175  411.11591
530.15  415.60748
530.125  409.52668
530.1  432.91531
530.075  401.95592
530.05  384.51993
530.025  437.90493
530  431.8349

# Operation:                    Peak Location
# Range Start:                  537.534
# Range End:                    523.659
# Parameter: "Peak-Annotation" = Peak at <Peak (x):@>
#
# Result:
# Number of Results:            1
# Parameter: "Peak (x)" = 532.69580888998723 eV +- 0.0140730741512624
# Parameter: "Peak (y)" = 1297.3411906207232 cps
# Parameter: "Fit Start" = 720.44000000000005 eV
# Parameter: "Fit End" = 721.49000000000012 eV
#
# Result Name:                  Peak Location
# Number of Curves:             1
#
# Curve:                        0
# Values/Curve:                 43
#
533.2  1043.8426
533.175  1061.4427
533.15  1079.1852
533.125  1096.9638
533.1  1114.6659
533.075  1132.1733
533.05  1149.3635
533.025  1166.111
533  1182.289
532.975  1197.7707
532.95  1212.4311
532.925  1226.1487
532.9  1238.8068
532.875  1250.2956
532.85  1260.5138
532.825  1269.3694
532.8  1276.7819
532.775  1282.6832
532.75  1287.0184
532.725  1289.747
532.7  1290.8434
532.675  1290.2973
532.65  1288.1139
532.625  1284.3135
532.6  1278.9319
532.575  1272.0192
532.55  1263.639
532.525  1253.868
532.5  1242.7944
532.475  1230.5164
532.45  1217.1414
532.425  1202.7838
532.4  1187.5637
532.375  1171.6051
532.35  1155.0344
532.325  1137.9785
532.3  1120.5637
532.275  1102.9134
532.25  1085.1476
532.225  1067.3808
532.2  1049.7216
532.175  1032.2712
532.15  1015.1228

# Region:                       Au 4f
# Spectrum ID:                  65
# Acquisition Date:             02/05/25 16:05:14 UTC-5
# Analysis Method:              XPS
# Analyzer:                     PHOIBOS MCD5 Analyzer
# Analyzer Lens:                LargeArea:1.5kV
# Analyzer Slit:                8:7dia.\B:open
# Scan Mode:                    FixedAnalyzerTransmission
# Curves/Scan:                  1
# Values/Curve:                 167
# Dwell Time:                   0.15
# Excitation Energy:            1253.64
# Binding Energy:               88
# Pass Energy:                  10
# Bias Voltage:                 90
# Detector Voltage:             3000
# Eff. Workfunction:            4.543
# Source:                       X-Ray Dummy
# Comment:                      
#
# Cycle: 0
# Number of Scans: 3
#
# Cycle: 0, Curve: 0
# Acquisition Date:             02/05/25 16:05:14 UTC-5
#
# ColumnLabels:                 energy counts/s
#
88  143.79472
87.975904  150.76776
87.951807  160.60854
87.927711  167.27362
87.903614  185.3495
87.879518  161.71294
87.855422  158.10968
87.831325  148.88128
87.807229  168.53376
87.783133  186.55628
87.759036  147.89677
87.73494  148.37306
87.710843  163.61974
87.686747  171.48119
87.662651  188.16186
87.638554  190.41029
87.614458  198.78913
87.590361  166.20135
87.566265  152.97617
87.542169  165.10008
87.518072  169.90886
87.493976  183.95406
87.46988  174.3001
87.445783  184.21569
87.421687  181.98394
87.39759  168.8963
87.373494  204.24207
87.349398  200.90386
87.325301  174.35151
87.301205  234.61301
87.277108  207.301
87.253012  218.35832
87.228916  224.46714
87.204819  228.39188
87.180723  253.69689
87.156627  229.18346
87.13253  239.04326
87.108434  235.99978
87.084337  254.36851
87.060241  276.43222
87.036145  244.8668
87.012048  224.42565
86.987952  241.41666
86.963855  279.4698
86.939759  270.80793
86.915663  289.64215
86.891566  275.3405
86.86747  261.89939
86.843373  328.30384
86.819277  293.58379
86.795181  299.81748
86.771084  297.98613
86.746988  271.53146
86.722892  310.84322
86.698795  318.39958
86.674699  327.22028
86.650602  379.79575
86.626506  334.78589
86.60241  364.19584
86.578313  420.92642
86.554217  435.92854
86.53012  399.32527
86.506024  370.6968
86.481928  342.58396
86.457831  372.98562
86.433735  394.96635
86.409639  366.05723
86.385542  360.25237
86.361446  388.9719
86.337349  404.47762
86.313253  422.78247
86.289157  367.586
86.26506  375.74869
86.240964  413.91959
86.216867  437.29095
86.192771  396.47258
86.168675  358.5156
86.144578  373.11442
86.120482  373.43037
86.096386  348.88189
86.072289  332.74388
86.048193  358.03883
86.024096  336.67323
86  294.07453
85.975904  307.49454
85.951807  323.89684
85.927711  340.91679
85.903614  325.77621
85.879518  280.25977
85.855422  291.09936
85.831325  268.36183
85.807229  264.00942
85.783133  275.45198
85.759036  298.2596
85.73494  250.17335
85.710843  258.43339
85.686747  254.38963
85.662651  230.72652
85.638554  207.89554
85.614458  215.4395
85.590361  215.26975
85.566265  217.71985
85.542169  187.388
85.518072  218.35114
85.493976  214.22696
85.46988  196.76799
85.445783  191.36287
85.421687  190.14744
85.39759  199.08613
85.373494  178.31481
85.349398  181.06383
85.325301  180.03026
85.301205  170.9154
85.277108  157.1831
85.253012  145.06101
85.228916  151.47525
85.204819  162.4599
85.180723  146.8806
85.156627  166.02229
85.13253  169.30195
85.108434  156.76838
85.084337  142.62112
85.060241  160.50422
85.036145  140.24762
85.012048  124.06993
84.987952  139.16689
84.963855  133.25892
84.939759  120.871
84.915663  130.12786
84.891566  150.40333
84.86747  131.24367
84.843373  145.89341
84.819277  116.33445
84.795181  129.48741
84.771084  137.42232
84.746988  129.93518
84.722892  117.23982
84.698795  127.47669
84.674699  120.06151
84.650602  140.76951
84.626506  165.34047
84.60241  119.24601
84.578313  136.25385
84.554217  105.32954
84.53012  136.07821
84.506024  139.78224
84.481928  123.05081
84.457831  120.6369
84.433735  132.35873
84.409639  116.79259
84.385542  111.41944
84.361446  121.98325
84.337349  119.1992
84.313253  116.35768
84.289157  118.62633
84.26506  126.78108
84.240964  126.49209
84.216867  93.482087
84.192771  108.00519
84.168675  124.74887
84.144578  123.88769
84.120482  88.51204
84.096386  109.7674
84.072289  106.06612
84.048193  112.38523
84.024096  122.00574
84  107.76864

# Operation:                    Peak Location
# Range Start:                  89.0386
# Range End:                    81.0288
# Parameter: "Peak-Annotation" = Peak at <Peak (x):@>
#
# Result:
# Number of Results:            1
# Parameter: "Peak (x)" = 86.336437439635802 eV +- 0.018968121272373857
# Parameter: "Peak (y)" = 393.03890755477659 cps
# Parameter: "Fit Start" = 1166.8689156626508 eV
# Parameter: "Fit End" = 1167.9773493975904 eV
#
# Result Name:                  Peak Location
# Number of Curves:             1
#
# Curve:                        0
# Values/Curve:                 47
#
86.771084  306.41314
86.746988  313.95294
86.722892  321.37345
86.698795  328.63161
86.674699  335.68384
86.650602  342.48646
86.626506  348.99616
86.60241  355.1704
86.578313  360.96791
86.554217  366.34913
86.53012  371.27667
86.506024  375.71571
86.481928  379.63447
86.457831  383.00451
86.433735  385.80114
86.409639  388.00369
86.385542  389.59577
86.361446  390.56545
86.337349  390.90548
86.313253  390.61328
86.289157  389.69106
86.26506  388.14573
86.240964  385.98887
86.216867  383.23654
86.192771  379.90908
86.168675  376.03091
86.144578  371.63018
86.120482  366.73843
86.096386  361.39027
86.072289  355.62292
86.048193  349.47577
86.024096  342.98999
86  336.20802
85.975904  329.17316
85.951807  321.92907
85.927711  314.51933
85.903614  306.98706
85.879518  299.37448
85.855422  291.72252
85.831325  284.07052
85.807229  276.45589
85.783133  268.91385
85.759036  261.4772
85.73494  254.17614
85.710843  247.0381
85.686747  240.08768
85.662651  233.34655

# Region:                       Ti 2p
# Spectrum ID:                  66
# Acquisition Date:             02/05/25 16:07:04 UTC-5
# Analysis Method:              XPS
# Analyzer:                     PHOIBOS MCD5 Analyzer
# Analyzer Lens:                LargeArea:1.5kV
# Analyzer Slit:                8:7dia.\B:open
# Scan Mode:                    FixedAnalyzerTransmission
# Curves/Scan:                  1
# Values/Curve:                 167
# Dwell Time:                   0.15
# Excitation Energy:            1253.64
# Binding Energy:               463
# Pass Energy:                  10
# Bias Voltage:                 90
# Detector Voltage:             3000
# Eff. Workfunction:            4.543
# Source:                       X-Ray Dummy
# Comment:                      
#
# Cycle: 0
# Number of Scans: 3
#
# Cycle: 0, Curve: 0
# Acquisition Date:             02/05/25 16:07:04 UTC-5
#
# ColumnLabels:                 energy counts/s
#
463  313.44168
462.9759  315.41423
462.95181  319.49262
462.92771  297.70306
462.90361  343.6367
462.87952  366.26317
462.85542  325.12178
462.83133  361.2876
462.80723  384.04297
462.78313  346.5755
462.75904  340.71987
462.73494  371.38898
462.71084  397.82275
462.68675  369.98965
462.66265  343.84489
462.63855  399.00677
462.61446  425.39407
462.59036  445.91393
462.56627  356.87397
462.54217  334.72792
462.51807  357.8763
462.49398  402.53162
462.46988  417.95781
462.44578  417.50953
462.42169  393.77085
462.39759  486.03119
462.37349  467.58038
462.3494  408.78462
462.3253  463.00685
462.3012  448.16582
462.27711  469.15921
462.25301  502.17347
462.22892  497.72848
462.20482  515.60737
462.18072  563.3259
462.15663  590.39108
462.13253  581.08108
462.10843  578.80383
462.08434  634.1739
462.06024  661.75924
462.03614  669.04975
462.01205  689.89038
461.98795  678.74127
461.96386  692.88587
461.93976  733.16101
461.91566  734.46046
461.89157  784.66529
461.86747  796.83744
461.84337  834.0252
461.81928  769.05698
461.79518  838.82919
461.77108  800.39137
461.74699  899.65487
461.72289  848.35823
461.6988  907.6108
461.6747  889.06488
461.6506  974.46201
461.62651  956.87917
461.60241  898.46874
461.57831  924.35587
461.55422  937.31246
461.53012  906.01041
461.50602  933.48641
461.48193  967.45599
461.45783  956.08312
461.43373  1054.8968
461.40964  950.98255
461.38554  990.02051
461.36145  1031.5928
461.33735  945.46573
461.31325  923.90511
461.28916  942.62088
461.26506  882.8577
461.24096  955.05864
461.21687  932.00376
461.19277  962.07921
461.16867  945.53076
461.14458  959.33204
461.12048  874.4928
461.09639  819.05259
461.07229  836.70751
461.04819  872.95612
461.0241  927.79096
461  791.93119
460.9759  797.20742
460.95181  831.53006
460.92771  879.02801
460.90361  796.03806
460.87952  732.89191
460.85542  726.62421
460.83133  713.33805
460.80723  680.18696
460.78313  634.78759
460.75904  612.07012
460.73494  601.55445
460.71084  612.85723
460.68675  627.36911
460.66265  647.1631
460.63855  551.01181
460.61446  506.74879
460.59036  554.21374
460.56627  529.25921
460.54217  452.47015
460.51807  461.38012
460.49398  490.44129
460.46988  415.47143
460.44578  441.01085
460.42169  454.44116
460.39759  421.73091
460.37349  417.59194
460.3494  414.24046
460.3253  414.458
460.3012  386.71895
460.27711  383.97945
460.25301  366.10651
460.22892  390.8402
460.20482  393.44899
460.18072  314.97152
460.15663  315.41851
460.13253  323.37186
460.10843  306.70145
460.08434  301.71989
460.06024  293.00878
460.03614  333.41342
460.01205  306.93113
459.98795  325.19751
459.96386  272.32204
459.93976  307.16058
459.91566  325.8706
459.89157  290.19988
459.86747  315.27154
459.84337  298.65704
459.81928  302.63002
459.79518  316.70381
459.77108  310.86091
459.74699  279.71519
459.72289  259.76226
459.6988  266.5579
459.6747  295.83306
459.6506  292.52259
459.62651  315.18973
459.60241  277.78953
459.57831  264.13164
459.55422  261.13859
459.53012  279.57394
459.50602  273.23282
459.48193  249.70591
459.45783  228.54014
459.43373  239.50379
459.40964  200.97502
459.38554  224.72825
459.36145  276.46962
459.33735  266.71656
459.31325  259.08243
459.28916  271.71003
459.26506  246.25717
459.24096  233.85479
459.21687  229.97972
459.19277  236.23491
459.16867  253.02876
459.14458  251.65814
459.12048  236.02922
459.09639  268.68005
459.07229  243.97203
459.04819  241.79391
459.0241  243.5576
459  232.61145

# Operation:                    Peak Location
# Range Start:                  463.336
# Range End:                    455.266
# Parameter: "Peak-Annotation" = Peak at <Peak (x):@>
#
# Result:
# Number of Results:            1
# Parameter: "Peak (x)" = 461.3929736856046 eV +- 0.013312314446472434
# Parameter: "Peak (y)" = 976.2058983100693 cps
# Parameter: "Fit Start" = 791.70024096385555 eV
# Parameter: "Fit End" = 792.78457831325306 eV
#
# Result Name:                  Peak Location
# Number of Curves:             1
#
# Curve:                        0
# Values/Curve:                 46
#
461.93976  736.11273
461.91566  753.11337
461.89157  769.79437
461.86747  786.10487
461.84337  801.9941
461.81928  817.41163
461.79518  832.3076
461.77108  846.63305
461.74699  860.34011
461.72289  873.38234
461.6988  885.71494
461.6747  897.29499
461.6506  908.08179
461.62651  918.03697
461.60241  927.12484
461.57831  935.31251
461.55422  942.57013
461.53012  948.87109
461.50602  954.19212
461.48193  958.5135
461.45783  961.81914
461.43373  964.0967
461.40964  965.33766
461.38554  965.53736
461.36145  964.69506
461.33735  962.81391
461.31325  959.90096
461.28916  955.9671
461.26506  951.02698
461.24096  945.09896
461.21687  938.20495
461.19277  930.3703
461.16867  921.62365
461.14458  911.99674
461.12048  901.52421
461.09639  890.24343
461.07229  878.19424
461.04819  865.41874
461.0241  851.96102
461  837.86694
460.9759  823.18385
460.95181  807.96033
460.92771  792.24592
460.90361  776.09085
460.87952  759.54581
460.85542  742.66165

# Region:                       O 1s
# Spectrum ID:                  67
# Acquisition Date:             02/05/25 16:09:11 UTC-5
# Analysis Method:              XPS
# Analyzer:                     PHOIBOS MCD5 Analyzer
# Analyzer Lens:                LargeArea:1.5kV
# Analyzer Slit:                8:7dia.\B:open
# Scan Mode:                    FixedAnalyzerTransmission
# Curves/Scan:                  1
# Values/Curve:                 201
# Dwell Time:                   0.15
# Excitation Energy:            1253.64
# Binding Energy:               535
# Pass Energy:                  10
# Bias Voltage:                 90
# Detector Voltage:             3000
# Eff. Workfunction:            4.543
# Source:                       X-Ray Dummy
# Comment:                      
#
# Cycle: 0
# Number of Scans: 3
#
# Cycle: 0, Curve: 0
# Acquisition Date:             02/05/25 16:09:11 UTC-5
#
# ColumnLabels:                 energy counts/s
#
535  473.78975
534.975  482.99468
534.95  513.63726
534.925  516.09481
534.9  499.23324
534.875  553.77403
534.85  518.25192
534.825  570.40752
534.8  589.53567
534.775  602.79157
534.75  516.54812
534.725  542.93764
534.7  516.50366
534.675  536.93455
534.65  533.45267
534.625  526.68344
534.6  532.48787
534.575  529.68062
534.55  529.45409
534.525  552.77635
534.5  553.8301
534.475  540.50566
534.45  536.79594
534.425  594.60334
534.4  579.36246
534.375  570.4682
534.35  615.66151
534.325  614.46148
534.3  607.89697
534.275  561.71225
534.25  609.443
534.225  624.45039
534.2  632.47717
534.175  662.84401
534.15  596.2626
534.125  616.38673
534.1  605.11164
534.075  656.57057
534.05  608.82515
534.025  644.4046
534  678.88629
533.975  656.8678
533.95  706.62945
533.925  734.83828
533.9  701.75681
533.875  680.90493
533.85  680.25607
533.825  687.97774
533.8  685.25314
533.775  722.39678
533.75  700.23804
533.725  714.03164
533.7  697.7553
533.675  731.40878
533.65  786.55404
533.625  790.92991
533.6  817.98129
533.575  815.05233
533.55  901.17476
533.525  866.42052
533.5  836.5035
533.475  885.17367
533.45  904.37354
533.425  901.91892
533.4  931.72275
533.375  984.17399
533.35  951.78027
533.325  965.49519
533.3  990.67219
533.275  1016.9347
533.25  950.60336
533.225  1028.3157
533.2  1064.9535
533.175  1149.0317
533.15  1102.2464
533.125  1146.1173
533.1  1151.5823
533.075  1101.705
533.05  1121.4054
533.025  1196.102
533  1191.797
532.975  1153.4057
532.95  1198.7351
532.925  1147.2276
532.9  1183.0817
532.875  1279.0013
532.85  1250.2916
532.825  1248.6922
532.8  1191.9094
532.775  1243.7811
532.75  1345.7579
532.725  1247.5489
532.7  1192.9536
532.675  1206.4218
532.65  1272.2801
532.625  1232.1558
532.6  1148.9394
532.575  1269.5621
532.55  1254.8802
532.525  1242.7437
532.5  1310.1827
532.475  1255.1578
532.45  1187.4559
532.425  1184.4374
532.4  1231.6204
532.375  1216.7258
532.35  1106.4608
532.325  1051.8518
532.3  1081.2007
532.275  1085.2881
532.25  1035.9545
532.225  1076.9077
532.2  1064.6492
532.175  1014.1577
532.15  1037.9928
532.125  1006.004
532.1  936.91013
532.075  954.82816
532.05  915.1862
532.025  932.139
532  936.2698
531.975  911.27142
531.95  836.72261
531.925  847.16295
531.9  798.34353
531.875  770.08538
531.85  779.73189
531.825  815.07311
531.8  716.40727
531.775  739.39891
531.75  689.17292
531.725  646.88115
531.7  617.97658
531.675  651.84803
531.65  659.77694
531.625  646.03653
531.6  609.54765
531.575  552.14173
531.55  569.89727
531.525  605.64097
531.5  561.98655
531.475  595.2614
531.45  615.29426
531.425  560.77493
531.4  550.4634
531.375  564.13582
531.35  548.18795
531.325  498.62092
531.3  510.6998
531.275  496.90276
531.25  499.21903
531.225  521.3111
531.2  532.48478
531.175  564.41595
531.15  510.90601
531.125  484.91244
531.1  504.90392
531.075  473.03793
531.05  531.80849
531.025  494.89614
531  460.16341
530.975  439.44883
530.95  456.56565
530.925  449.25042
530.9  453.05628
530.875  423.41761
530.85  429.51464
530.825  435.34172
530.8  390.70558
530.775  456.7753
530.75  442.95008
530.725  424.34066
530.7  444.01078
530.675  454.23604
530.65  459.06841
530.625  439.97434
530.6  410.83379
530.575  410.32475
530.55  437.65198
530.525  397.83488
530.5  383.31582
530.475  368.14671
530.45  427.27234
530.425  478.9934
530.4  453.16699
530.375  413.54244
530.35  402.87474
530.325  423.57374
530.3  405.76812
530.275  417.47964
530.25  448.70111
530.225  434.79011
530.2  361.337
530.175  378.85468
530.15  428.4716
530.125  363.13789
530.1  400.99455
530.075  392.89346
530.05  352.79652
530.025  401.19457
530  343.73557

# Operation:                    Peak Location
# Range Start:                  537.534
# Range End:                    523.659
# Parameter: "Peak-Annotation" = Peak at <Peak (x):@>
#
# Result:
# Number of Results:            1
# Parameter: "Peak (x)" = 532.70868315950872 eV +- 0.012965088436343496
# Parameter: "Peak (y)" = 1239.3973996180478 cps
# Parameter: "Fit Start" = 720.34000000000015 eV
# Parameter: "Fit End" = 721.54000000000008 eV
#
# Result Name:                  Peak Location
# Number of Curves:             1
#
# Curve:                        0
# Values/Curve:                 49
#
533.3  977.14391
533.275  998.24988
533.25  1018.6765
533.225  1038.3954
533.2  1057.3789
533.175  1075.6004
533.15  1093.0338
533.125  1109.6543
533.1  1125.438
533.075  1140.3619
533.05  1154.4045
533.025  1167.5451
533  1179.7643
532.975  1191.0443
532.95  1201.3682
532.925  1210.7207
532.9  1219.0879
532.875  1226.4571
532.85  1232.8174
532.825  1238.1592
532.8  1242.4744
532.775  1245.7565
532.75  1248.0005
532.725  1249.2031
532.7  1249.3625
532.675  1248.4783
532.65  1246.552
532.625  1243.5864
532.6  1239.586
532.575  1234.5569
532.55  1228.5067
532.525  1221.4444
532.5  1213.3807
532.475  1204.3277
532.45  1194.2988
532.425  1183.3091
532.4  1171.3747
532.375  1158.5135
532.35  1144.7443
532.325  1130.0872
532.3  1114.5637
532.275  1098.1962
532.25  1081.0084
532.225  1063.0248
532.2  1044.2712
532.175  1024.774
532.15  1004.5605
532.125  983.65888
532.1  962.09807

# Region:                       Au 4f
# Spectrum ID:                  68
# Acquisition Date:             02/05/25 16:11:01 UTC-5
# Analysis Method:              XPS
# Analyzer:                     PHOIBOS MCD5 Analyzer
# Analyzer Lens:                LargeArea:1.5kV
# Analyzer Slit:                8:7dia.\B:open
# Scan Mode:                    FixedAnalyzerTransmission
# Curves/Scan:                  1
# Values/Curve:                 167
# Dwell Time:                   0.15
# Excitation Energy:            1253.64
# Binding Energy:               88
# Pass Energy:                  10
# Bias Voltage:                 90
# Detector Voltage:             3000
# Eff. Workfunction:            4.543
# Source:                       X-Ray Dummy
# Comment:                      
#
# Cycle: 0
# Number of Scans: 3
#
# Cycle: 0, Curve: 0
# Acquisition Date:             02/05/25 16:11:01 UTC-5
#
# ColumnLabels:                 energy counts/s
#
88  156.87519
87.975904  153.01429
87.951807  151.0369
87.927711  154.84096
87.903614  152.11499
87.879518  159.66402
87.855422  182.24249
87.831325  155.58333
87.807229  173.85611
87.783133  177.38724
87.759036  157.61367
87.73494  174.56968
87.710843  133.31224
87.686747  158.52513
87.662651  165.08512
87.638554  165.79009
87.614458  174.37831
87.590361  193.51963
87.566265  194.28388
87.542169  194.28713
87.518072  189.33444
87.493976  184.48206
87.46988  176.55587
87.445783  191.11748
87.421687  194.38633
87.39759  149.54643
87.373494  181.57241
87.349398  230.66787
87.325301  200.17702
87.301205  218.20212
87.277108  179.34432
87.253012  214.73774
87.228916  228.59531
87.204819  204.71544
87.180723  214.868
87.156627  199.74822
87.13253  230.55256
87.108434  236.60567
87.084337  246.52885
87.060241  244.09926
87.036145  266.68765
87.012048  232.8075
86.987952  254.6443
86.963855  297.4484
86.939759  313.22782
86.915663  268.2593
86.891566  302.19977
86.86747  310.90703
86.843373  318.22167
86.819277  300.16442
86.795181  323.62216
86.771084  320.82423
86.746988  321.88534
86.722892  362.51736
86.698795  332.5368
86.674699  297.57306
86.650602  320.58148
86.626506  350.78852
86.60241  395.356
86.578313  399.33502
86.554217  376.42614
86.53012  399.17815
86.506024  379.95332
86.481928  392.36609
86.457831  374.15503
86.433735  350.09336
86.409639  390.70746
86.385542  378.69256
86.361446  382.10852
86.337349  383.87704
86.313253  328.7304
86.289157  376.31073
86.26506  368.42301
86.240964  362.78619
86.216867  368.3149
86.192771  365.44672
86.168675  319.75327
86.144578  344.02648
86.120482  370.03167
86.096386  352.87895
86.072289  366.38277
86.048193  357.03436
86.024096  329.13392
86  334.66606
85.975904  314.47069
85.951807  305.38303
85.927711  331.54992
85.903614  335.49306
85.879518  309.04907
85.855422  319.84223
85.831325  318.60649
85.807229  300.436
85.783133  274.33546
85.759036  274.68444
85.73494  264.52387
85.710843  264.91514
85.686747  236.30503
85.662651  231.9594
85.638554  223.73656
85.614458  224.51945
85.590361  219.85811
85.566265  218.52745
85.542169  196.71135
85.518072  188.90645
85.493976  201.41776
85.46988  232.42673
85.445783  253.89461
85.421687  183.97842
85.39759  160.57736
85.373494  165.31166
85.349398  187.91261
85.325301  140.96813
85.301205  128.93629
85.277108  168.29781
85.253012  167.20871
85.228916  153.59557
85.204819  170.54251
85.180723  154.40255
85.156627  171.37762
85.13253  144.31833
85.108434  159.46737
85.084337  125.65779
85.060241  131.66863
85.036145  115.43097
85.012048  135.77316
84.987952  123.59945
84.963855  153.96867
84.939759  122.61048
84.915663  121.05265
84.891566  144.11132
84.86747  158.45292
84.843373  138.57073
84.819277  118.38489
84.795181  131.79603
84.771084  146.32968
84.746988  129.10669
84.722892  118.31744
84.698795  112.07582
84.674699  108.78665
84.650602  132.97665
84.626506  130.17886
84.60241  100.12118
84.578313  129.86368
84.554217  133.42505
84.53012  137.91694
84.506024  128.84218
84.481928  121.70579
84.457831  127.84758
84.433735  107.23951
84.409639  125.37997
84.385542  150.25456
84.361446  138.70937
84.337349  133.40445
84.313253  126.97794
84.289157  109.19941
84.26506  127.60468
84.240964  128.25484
84.216867  115.27951
84.192771  110.83291
84.168675  114.68124
84.144578  89.860295
84.120482  109.82392
84.096386  119.62411
84.072289  120.87185
84.048193  106.94515
84.024096  107.28447
84  106.60005

# Operation:                    Peak Location
# Range Start:                  88.3228
# Range End:                    81.0288
# Parameter: "Peak-Annotation" = Peak at <Peak (x):@>
#
# Result:
# Number of Results:            1
# Parameter: "Peak (x)" = 86.367037700638321 eV +- 0.012730687234624709
# Parameter: "Peak (y)" = 378.83397380721834 cps
# Parameter: "Fit Start" = 1166.4592771084338 eV
# Parameter: "Fit End" = 1168.0737349397591 eV
#
# Result Name:                  Peak Location
# Number of Curves:             1
#
# Curve:                        0
# Values/Curve:                 68
#
87.180723  205.79926
87.156627  214.17088
87.13253  222.44503
87.108434  230.6103
87.084337  238.65526
87.060241  246.56849
87.036145  254.33859
87.012048  261.95425
86.987952  269.4042
86.963855  276.67732
86.939759  283.76262
86.915663  290.64927
86.891566  297.32665
86.86747  303.78434
86.843373  310.0122
86.819277  316.00034
86.795181  321.73919
86.771084  327.2195
86.746988  332.43237
86.722892  337.36928
86.698795  342.02212
86.674699  346.38318
86.650602  350.4452
86.626506  354.20141
86.60241  357.64548
86.578313  360.77161
86.554217  363.57451
86.53012  366.04941
86.506024  368.19209
86.481928  369.99889
86.457831  371.46673
86.433735  372.59308
86.409639  373.376
86.385542  373.81416
86.361446  373.90679
86.337349  373.65373
86.313253  373.05543
86.289157  372.11291
86.26506  370.82779
86.240964  369.20228
86.216867  367.23917
86.192771  364.9418
86.168675  362.31411
86.144578  359.36057
86.120482  356.08618
86.096386  352.49649
86.072289  348.59753
86.048193  344.39584
86.024096  339.89843
86  335.11276
85.975904  330.04673
85.951807  324.70865
85.927711  319.10722
85.903614  313.2515
85.879518  307.15088
85.855422  300.81511
85.831325  294.25417
85.807229  287.47836
85.783133  280.49818
85.759036  273.32435
85.73494  265.96778
85.710843  258.43953
85.686747  250.75078
85.662651  242.91283
85.638554  234.93705
85.614458  226.83483
85.590361  218.61761
85.566265  210.2968

